File: Data/2022-03-23 MQ HCF/CV-Carbon-FeHCF-1.txt
Mar. 22, 2022   14:31:51
Cyclic Voltammetry
File: d:\mq\20220322-pba stability\cv-carbon-fehcf-1.txt
Data Source:  Experiment
Instrument Model:  CHI840D
Header:
Note:

Init E (V) = -0.3
High E (V) = 0.5
Low E (V) = -0.3
Init P/N = P
Scan Rate (V/s) = 0.05
Segment = 100
Sample Interval (V) = 0.001
Quiet Time (sec) = 2
Sensitivity (A/V) = 1e-5

Segment 1:

Segment 2:

Segment 3:

Segment 4:

Segment 5:

Segment 6:

Segment 7:

Segment 8:

Segment 9:

Segment 10:

Segment 11:

Segment 12:

Segment 13:

Segment 14:

Segment 15:

Segment 16:

Segment 17:

Segment 18:

Segment 19:

Segment 20:

Segment 21:

Segment 22:

Segment 23:

Segment 24:

Segment 25:

Segment 26:

Segment 27:

Segment 28:

Segment 29:

Segment 30:

Segment 31:

Segment 32:

Segment 33:

Segment 34:

Segment 35:

Segment 36:

Segment 37:

Segment 38:

Segment 39:

Segment 40:

Segment 41:

Segment 42:

Segment 43:

Segment 44:

Segment 45:

Segment 46:

Segment 47:

Segment 48:

Segment 49:

Segment 50:

Segment 51:

Segment 52:

Segment 53:

Segment 54:

Segment 55:

Segment 56:

Segment 57:

Segment 58:

Segment 59:

Segment 60:

Segment 61:

Segment 62:

Segment 63:

Segment 64:

Segment 65:

Segment 66:

Segment 67:

Segment 68:

Segment 69:

Segment 70:

Segment 71:

Segment 72:

Segment 73:

Segment 74:

Segment 75:

Segment 76:

Segment 77:

Segment 78:

Segment 79:

Segment 80:

Segment 81:

Segment 82:

Segment 83:

Segment 84:

Segment 85:

Segment 86:

Segment 87:

Segment 88:

Segment 89:

Segment 90:

Segment 91:

Segment 92:

Segment 93:

Segment 94:

Segment 95:

Segment 96:

Segment 97:

Segment 98:

Segment 99:

Segment 100:

Potential/V, Current/A

-0.300, -3.610e-6
-0.033, 5.240e-6
0.234, 1.583e-5
0.499, 7.368e-7
0.232, -2.982e-6
-0.035, -1.563e-5
-0.298, -2.517e-6
-0.031, 5.140e-6
0.236, 1.570e-5
0.497, 7.214e-7
0.230, -2.883e-6
-0.037, -1.548e-5
-0.296, -2.428e-6
-0.029, 5.001e-6
0.238, 1.548e-5
0.495, 7.465e-7
0.228, -2.806e-6
-0.039, -1.526e-5
-0.294, -2.399e-6
-0.027, 4.858e-6
0.240, 1.522e-5
0.493, 7.879e-7
0.226, -2.737e-6
-0.041, -1.498e-5
-0.292, -2.391e-6
-0.025, 4.700e-6
0.242, 1.491e-5
0.491, 8.404e-7
0.224, -2.664e-6
-0.043, -1.466e-5
-0.290, -2.397e-6
-0.023, 4.521e-6
0.244, 1.456e-5
0.489, 9.034e-7
0.222, -2.585e-6
-0.045, -1.430e-5
-0.288, -2.416e-6
-0.021, 4.328e-6
0.246, 1.416e-5
0.487, 9.762e-7
0.220, -2.498e-6
-0.047, -1.389e-5
-0.286, -2.447e-6
-0.019, 4.113e-6
0.248, 1.372e-5
0.485, 1.065e-6
0.218, -2.399e-6
-0.049, -1.343e-5
-0.284, -2.484e-6
-0.017, 3.877e-6
0.250, 1.323e-5
0.483, 1.165e-6
0.216, -2.289e-6
-0.051, -1.292e-5
-0.282, -2.525e-6
-0.015, 3.617e-6
0.252, 1.268e-5
0.481, 1.277e-6
0.214, -2.163e-6
-0.053, -1.236e-5
-0.280, -2.570e-6
-0.013, 3.334e-6
0.254, 1.208e-5
0.479, 1.403e-6
0.212, -2.018e-6
-0.055, -1.175e-5
-0.278, -2.615e-6
-0.011, 3.021e-6
0.256, 1.142e-5
0.477, 1.548e-6
0.210, -1.857e-6
-0.057, -1.107e-5
-0.276, -2.656e-6
-0.009, 2.692e-6
0.258, 1.070e-5
0.475, 1.701e-6
0.208, -1.680e-6
-0.059, -1.035e-5
-0.274, -2.691e-6
-0.007, 2.351e-6
0.260, 9.924e-6
0.473, 1.860e-6
0.206, -1.492e-6
-0.061, -9.580e-6
-0.272, -2.715e-6
-0.005, 2.009e-6
0.262, 9.113e-6
0.471, 2.013e-6
0.204, -1.301e-6
-0.063, -8.785e-6
-0.270, -2.721e-6
-0.003, 1.682e-6
0.264, 8.277e-6
0.469, 2.152e-6
0.202, -1.109e-6
-0.065, -7.974e-6
-0.268, -2.709e-6
-0.001, 1.373e-6
0.266, 7.436e-6
0.467, 2.269e-6
0.200, -9.249e-7
-0.067, -7.176e-6
-0.266, -2.676e-6
0.001, 1.101e-6
0.268, 6.604e-6
0.465, 2.355e-6
0.198, -7.514e-7
-0.069, -6.388e-6
-0.264, -2.624e-6
0.003, 8.671e-7
0.270, 5.813e-6
0.463, 2.407e-6
0.196, -6.010e-7
-0.071, -5.661e-6
-0.262, -2.553e-6
0.005, 6.765e-7
0.272, 5.084e-6
0.461, 2.424e-6
0.194, -4.775e-7
-0.073, -5.001e-6
-0.260, -2.466e-6
0.007, 5.305e-7
0.274, 4.438e-6
0.459, 2.402e-6
0.192, -3.802e-7
-0.075, -4.412e-6
-0.258, -2.366e-6
0.009, 4.212e-7
0.276, 3.870e-6
0.457, 2.348e-6
0.190, -3.054e-7
-0.077, -3.901e-6
-0.256, -2.258e-6
0.011, 3.417e-7
0.278, 3.384e-6
0.455, 2.268e-6
0.188, -2.506e-7
-0.079, -3.458e-6
-0.254, -2.144e-6
0.013, 2.859e-7
0.280, 2.968e-6
0.453, 2.170e-6
0.186, -2.100e-7
-0.081, -3.073e-6
-0.252, -2.028e-6
0.015, 2.451e-7
0.282, 2.623e-6
0.451, 2.062e-6
0.184, -1.818e-7
-0.083, -2.745e-6
-0.250, -1.912e-6
0.017, 2.173e-7
0.284, 2.333e-6
0.449, 1.946e-6
0.182, -1.627e-7
-0.085, -2.472e-6
-0.248, -1.796e-6
0.019, 1.978e-7
0.286, 2.089e-6
0.447, 1.828e-6
0.180, -1.503e-7
-0.087, -2.229e-6
-0.246, -1.685e-6
0.021, 1.845e-7
0.288, 1.892e-6
0.445, 1.714e-6
0.178, -1.432e-7
-0.089, -2.037e-6
-0.244, -1.580e-6
0.023, 1.754e-7
0.290, 1.728e-6
0.443, 1.605e-6
0.176, -1.389e-7
-0.091, -1.876e-6
-0.242, -1.483e-6
0.025, 1.699e-7
0.292, 1.593e-6
0.441, 1.502e-6
0.174, -1.373e-7
-0.093, -1.742e-6
-0.240, -1.392e-6
0.027, 1.668e-7
0.294, 1.478e-6
0.439, 1.407e-6
0.172, -1.375e-7
-0.095, -1.619e-6
-0.238, -1.308e-6
0.029, 1.647e-7
0.296, 1.388e-6
0.437, 1.324e-6
0.170, -1.395e-7
-0.097, -1.524e-6
-0.236, -1.234e-6
0.031, 1.640e-7
0.298, 1.313e-6
0.435, 1.245e-6
0.168, -1.419e-7
-0.099, -1.441e-6
-0.234, -1.163e-6
0.033, 1.638e-7
0.300, 1.246e-6
0.433, 1.169e-6
0.166, -1.444e-7
-0.101, -1.365e-6
-0.232, -1.097e-6
0.035, 1.641e-7
0.302, 1.185e-6
0.431, 1.098e-6
0.164, -1.466e-7
-0.103, -1.301e-6
-0.230, -1.033e-6
0.037, 1.644e-7
0.304, 1.135e-6
0.429, 1.037e-6
0.162, -1.494e-7
-0.105, -1.249e-6
-0.228, -9.766e-7
0.039, 1.658e-7
0.306, 1.096e-6
0.427, 9.812e-7
0.160, -1.524e-7
-0.107, -1.206e-6
-0.226, -9.246e-7
0.041, 1.671e-7
0.308, 1.064e-6
0.425, 9.307e-7
0.158, -1.557e-7
-0.109, -1.168e-6
-0.224, -8.760e-7
0.043, 1.687e-7
0.310, 1.030e-6
0.423, 8.789e-7
0.156, -1.585e-7
-0.111, -1.131e-6
-0.222, -8.277e-7
0.045, 1.688e-7
0.312, 9.998e-7
0.421, 8.325e-7
0.154, -1.614e-7
-0.113, -1.099e-6
-0.220, -7.841e-7
0.047, 1.705e-7
0.314, 9.747e-7
0.419, 7.895e-7
0.152, -1.639e-7
-0.115, -1.072e-6
-0.218, -7.428e-7
0.049, 1.716e-7
0.316, 9.527e-7
0.417, 7.504e-7
0.150, -1.665e-7
-0.117, -1.050e-6
-0.216, -7.052e-7
0.051, 1.732e-7
0.318, 9.347e-7
0.415, 7.141e-7
0.148, -1.698e-7
-0.119, -1.028e-6
-0.214, -6.711e-7
0.053, 1.748e-7
0.320, 9.188e-7
0.413, 6.795e-7
0.146, -1.727e-7
-0.121, -1.013e-6
-0.212, -6.376e-7
0.055, 1.765e-7
0.322, 9.037e-7
0.411, 6.470e-7
0.144, -1.752e-7
-0.123, -9.950e-7
-0.210, -6.052e-7
0.057, 1.778e-7
0.324, 8.908e-7
0.409, 6.162e-7
0.142, -1.779e-7
-0.125, -9.823e-7
-0.208, -5.757e-7
0.059, 1.792e-7
0.326, 8.796e-7
0.407, 5.893e-7
0.140, -1.810e-7
-0.127, -9.704e-7
-0.206, -5.483e-7
0.061, 1.810e-7
0.328, 8.720e-7
0.405, 5.647e-7
0.138, -1.838e-7
-0.129, -9.612e-7
-0.204, -5.220e-7
0.063, 1.825e-7
0.330, 8.643e-7
0.403, 5.401e-7
0.136, -1.866e-7
-0.131, -9.524e-7
-0.202, -4.980e-7
0.065, 1.840e-7
0.332, 8.580e-7
0.401, 5.177e-7
0.134, -1.894e-7
-0.133, -9.469e-7
-0.298, -2.090e-6