File: Data/2022-03-23 MQ HCF/CV-Carbon-CoHCF-2.txt
Mar. 22, 2022   16:47:09
Cyclic Voltammetry
File: d:\mq\20220322-pba stability\cv-carbon-cohcf-2.txt
Data Source:  Experiment
Instrument Model:  CHI840D
Header:
Note:

Init E (V) = 0.2
High E (V) = 1.2
Low E (V) = 0.2
Init P/N = P
Scan Rate (V/s) = 0.05
Segment = 100
Sample Interval (V) = 0.001
Quiet Time (sec) = 2
Sensitivity (A/V) = 1e-5

Segment 1:

Segment 2:

Segment 3:

Segment 4:

Segment 5:

Segment 6:

Segment 7:

Segment 8:

Segment 9:

Segment 10:

Segment 11:

Segment 12:

Segment 13:

Segment 14:

Segment 15:

Segment 16:

Segment 17:

Segment 18:

Segment 19:

Segment 20:

Segment 21:

Segment 22:

Segment 23:

Segment 24:

Segment 25:

Segment 26:

Segment 27:

Segment 28:

Segment 29:

Segment 30:

Segment 31:

Segment 32:

Segment 33:

Segment 34:

Segment 35:

Segment 36:

Segment 37:

Segment 38:

Segment 39:

Segment 40:

Segment 41:

Segment 42:

Segment 43:

Segment 44:

Segment 45:

Segment 46:

Segment 47:

Segment 48:

Segment 49:

Segment 50:

Segment 51:

Segment 52:

Segment 53:

Segment 54:

Segment 55:

Segment 56:

Segment 57:

Segment 58:

Segment 59:

Segment 60:

Segment 61:

Segment 62:

Segment 63:

Segment 64:

Segment 65:

Segment 66:

Segment 67:

Segment 68:

Segment 69:

Segment 70:

Segment 71:

Segment 72:

Segment 73:

Segment 74:

Segment 75:

Segment 76:

Segment 77:

Segment 78:

Segment 79:

Segment 80:

Segment 81:

Segment 82:

Segment 83:

Segment 84:

Segment 85:

Segment 86:

Segment 87:

Segment 88:

Segment 89:

Segment 90:

Segment 91:

Segment 92:

Segment 93:

Segment 94:

Segment 95:

Segment 96:

Segment 97:

Segment 98:

Segment 99:

Segment 100:

Potential/V, Current/A

0.200, -3.823e-6
0.534, 7.644e-7
0.868, 7.534e-6
1.198, 9.382e-6
0.864, -1.454e-6
0.530, -5.556e-6
0.204, -3.515e-6
0.538, 7.932e-7
0.872, 7.876e-6
1.194, 8.475e-6
0.860, -1.701e-6
0.526, -5.940e-6
0.208, -3.679e-6
0.542, 7.958e-7
0.876, 8.088e-6
1.190, 7.861e-6
0.856, -1.858e-6
0.522, -6.229e-6
0.212, -3.797e-6
0.546, 8.245e-7
0.880, 8.251e-6
1.186, 7.378e-6
0.852, -1.965e-6
0.518, -6.456e-6
0.216, -3.876e-6
0.550, 8.685e-7
0.884, 8.366e-6
1.182, 6.961e-6
0.848, -2.041e-6
0.514, -6.624e-6
0.220, -3.919e-6
0.554, 9.197e-7
0.888, 8.430e-6
1.178, 6.575e-6
0.844, -2.089e-6
0.510, -6.757e-6
0.224, -3.945e-6
0.558, 9.783e-7
0.892, 8.461e-6
1.174, 6.217e-6
0.840, -2.117e-6
0.506, -6.857e-6
0.228, -3.951e-6
0.562, 1.042e-6
0.896, 8.464e-6
1.170, 5.890e-6
0.836, -2.132e-6
0.502, -6.944e-6
0.232, -3.951e-6
0.566, 1.111e-6
0.900, 8.459e-6
1.166, 5.592e-6
0.832, -2.140e-6
0.498, -7.010e-6
0.236, -3.937e-6
0.570, 1.181e-6
0.904, 8.441e-6
1.162, 5.307e-6
0.828, -2.146e-6
0.494, -7.062e-6
0.240, -3.915e-6
0.574, 1.253e-6
0.908, 8.414e-6
1.158, 5.050e-6
0.824, -2.150e-6
0.490, -7.110e-6
0.244, -3.890e-6
0.578, 1.327e-6
0.912, 8.393e-6
1.154, 4.810e-6
0.820, -2.152e-6
0.486, -7.144e-6
0.248, -3.858e-6
0.582, 1.402e-6
0.916, 8.364e-6
1.150, 4.583e-6
0.816, -2.157e-6
0.482, -7.176e-6
0.252, -3.827e-6
0.586, 1.479e-6
0.920, 8.342e-6
1.146, 4.378e-6
0.812, -2.162e-6
0.478, -7.204e-6
0.256, -3.790e-6
0.590, 1.559e-6
0.924, 8.314e-6
1.142, 4.180e-6
0.808, -2.168e-6
0.474, -7.221e-6
0.260, -3.751e-6
0.594, 1.637e-6
0.928, 8.292e-6
1.138, 3.999e-6
0.804, -2.178e-6
0.470, -7.243e-6
0.264, -3.714e-6
0.598, 1.718e-6
0.932, 8.275e-6
1.134, 3.830e-6
0.800, -2.188e-6
0.466, -7.262e-6
0.268, -3.676e-6
0.602, 1.801e-6
0.936, 8.261e-6
1.130, 3.672e-6
0.796, -2.202e-6
0.462, -7.281e-6
0.272, -3.638e-6
0.606, 1.886e-6
0.940, 8.252e-6
1.126, 3.524e-6
0.792, -2.217e-6
0.458, -7.301e-6
0.276, -3.603e-6
0.610, 1.971e-6
0.944, 8.241e-6
1.122, 3.383e-6
0.788, -2.232e-6
0.454, -7.312e-6
0.280, -3.562e-6
0.614, 2.056e-6
0.948, 8.224e-6
1.118, 3.245e-6
0.784, -2.248e-6
0.450, -7.319e-6
0.284, -3.520e-6
0.618, 2.141e-6
0.952, 8.209e-6
1.114, 3.116e-6
0.780, -2.267e-6
0.446, -7.324e-6
0.288, -3.478e-6
0.622, 2.227e-6
0.956, 8.194e-6
1.110, 2.989e-6
0.776, -2.288e-6
0.442, -7.326e-6
0.292, -3.435e-6
0.626, 2.312e-6
0.960, 8.175e-6
1.106, 2.867e-6
0.772, -2.310e-6
0.438, -7.321e-6
0.296, -3.390e-6
0.630, 2.397e-6
0.964, 8.159e-6
1.102, 2.751e-6
0.768, -2.335e-6
0.434, -7.316e-6
0.300, -3.345e-6
0.634, 2.481e-6
0.968, 8.141e-6
1.098, 2.640e-6
0.764, -2.361e-6
0.430, -7.312e-6
0.304, -3.301e-6
0.638, 2.567e-6
0.972, 8.125e-6
1.094, 2.535e-6
0.760, -2.388e-6
0.426, -7.310e-6
0.308, -3.259e-6
0.642, 2.655e-6
0.976, 8.115e-6
1.090, 2.436e-6
0.756, -2.417e-6
0.422, -7.306e-6
0.312, -3.215e-6
0.646, 2.742e-6
0.980, 8.098e-6
1.086, 2.336e-6
0.752, -2.446e-6
0.418, -7.292e-6
0.316, -3.168e-6
0.650, 2.826e-6
0.984, 8.078e-6
1.082, 2.240e-6
0.748, -2.479e-6
0.414, -7.283e-6
0.320, -3.123e-6
0.654, 2.912e-6
0.988, 8.062e-6
1.078, 2.149e-6
0.744, -2.513e-6
0.410, -7.266e-6
0.324, -3.073e-6
0.658, 2.994e-6
0.992, 8.039e-6
1.074, 2.058e-6
0.740, -2.548e-6
0.406, -7.250e-6
0.328, -3.029e-6
0.662, 3.079e-6
0.996, 8.022e-6
1.070, 1.974e-6
0.736, -2.587e-6
0.402, -7.238e-6
0.332, -2.985e-6
0.666, 3.165e-6
1.000, 8.011e-6
1.066, 1.894e-6
0.732, -2.628e-6
0.398, -7.222e-6
0.336, -2.938e-6
0.670, 3.249e-6
1.004, 7.994e-6
1.062, 1.815e-6
0.728, -2.671e-6
0.394, -7.209e-6
0.340, -2.894e-6
0.674, 3.334e-6
1.008, 7.981e-6
1.058, 1.739e-6
0.724, -2.716e-6
0.390, -7.195e-6
0.344, -2.849e-6
0.678, 3.419e-6
1.012, 7.970e-6
1.054, 1.668e-6
0.720, -2.763e-6
0.386, -7.180e-6
0.348, -2.804e-6
0.682, 3.502e-6
1.016, 7.956e-6
1.050, 1.596e-6
0.716, -2.811e-6
0.382, -7.159e-6
0.352, -2.756e-6
0.686, 3.582e-6
1.020, 7.939e-6
1.046, 1.527e-6
0.712, -2.861e-6
0.378, -7.147e-6
0.356, -2.711e-6
0.690, 3.664e-6
1.024, 7.925e-6
1.042, 1.458e-6
0.708, -2.912e-6
0.374, -7.122e-6
0.360, -2.663e-6
0.694, 3.742e-6
1.028, 7.910e-6
1.038, 1.393e-6
0.704, -2.967e-6
0.370, -7.103e-6
0.364, -2.616e-6
0.698, 3.822e-6
1.032, 7.899e-6
1.034, 1.329e-6
0.700, -3.025e-6
0.366, -7.082e-6
0.368, -2.568e-6
0.702, 3.901e-6
1.036, 7.884e-6
1.030, 1.268e-6
0.696, -3.083e-6
0.362, -7.063e-6
0.372, -2.520e-6
0.706, 3.977e-6
1.040, 7.867e-6
1.026, 1.207e-6
0.692, -3.139e-6
0.358, -7.035e-6
0.376, -2.471e-6
0.710, 4.051e-6
1.044, 7.853e-6
1.022, 1.149e-6
0.688, -3.200e-6
0.354, -7.014e-6
0.380, -2.421e-6
0.714, 4.124e-6
1.048, 7.836e-6
1.018, 1.093e-6
0.684, -3.261e-6
0.350, -6.999e-6
0.384, -2.376e-6
0.718, 4.205e-6
1.052, 7.830e-6
1.014, 1.041e-6
0.680, -3.325e-6
0.346, -6.984e-6
0.388, -2.327e-6
0.722, 4.276e-6
1.056, 7.816e-6
1.010, 9.885e-7
0.676, -3.385e-6
0.342, -6.961e-6
0.392, -2.276e-6
0.726, 4.344e-6
1.060, 7.794e-6
1.006, 9.375e-7
0.672, -3.442e-6
0.338, -6.924e-6
0.396, -2.220e-6
0.730, 4.400e-6
1.064, 7.760e-6
1.002, 8.848e-7
0.668, -3.496e-6
0.334, -6.887e-6
0.201, -6.071e-6