File: Data/2022-03-23 MQ HCF/CV-Carbon-CuHCF-2.txt
Mar. 22, 2022   19:28:35
Cyclic Voltammetry
File: d:\mq\20220322-pba stability\cv-carbon-cuhcf-2.txt
Data Source:  Experiment
Instrument Model:  CHI840D
Header:
Note:

Init E (V) = 0.2
High E (V) = 1.1
Low E (V) = 0.2
Init P/N = P
Scan Rate (V/s) = 0.05
Segment = 100
Sample Interval (V) = 0.001
Quiet Time (sec) = 2
Sensitivity (A/V) = 1e-5

Segment 1:
Ep = 0.718V
ip = 3.883e-6A
Ah = 8.846e-6C

Segment 2:

Segment 3:
Ep = 0.723V
ip = 5.381e-6A
Ah = 1.327e-5C

Segment 4:

Segment 5:
Ep = 0.727V
ip = 5.732e-6A
Ah = 1.462e-5C

Segment 6:

Segment 7:

Segment 8:

Segment 9:

Segment 10:

Segment 11:

Segment 12:

Segment 13:

Segment 14:

Segment 15:

Segment 16:

Segment 17:

Segment 18:

Segment 19:

Segment 20:

Segment 21:

Segment 22:

Segment 23:

Segment 24:

Segment 25:

Segment 26:

Segment 27:

Segment 28:

Segment 29:

Segment 30:

Segment 31:

Segment 32:

Segment 33:

Segment 34:

Segment 35:

Segment 36:

Segment 37:

Segment 38:

Segment 39:

Segment 40:

Segment 41:

Segment 42:

Segment 43:

Segment 44:

Segment 45:

Segment 46:

Segment 47:

Segment 48:

Segment 49:

Segment 50:

Segment 51:

Segment 52:

Segment 53:

Segment 54:

Segment 55:

Segment 56:

Segment 57:

Segment 58:

Segment 59:

Segment 60:

Segment 61:

Segment 62:

Segment 63:

Segment 64:

Segment 65:

Segment 66:

Segment 67:

Segment 68:

Segment 69:

Segment 70:

Segment 71:

Segment 72:

Segment 73:

Segment 74:

Segment 75:

Segment 76:

Segment 77:

Segment 78:

Segment 79:

Segment 80:

Segment 81:

Segment 82:

Segment 83:

Segment 84:

Segment 85:

Segment 86:

Segment 87:

Segment 88:

Segment 89:

Segment 90:

Segment 91:

Segment 92:

Segment 93:

Segment 94:

Segment 95:

Segment 96:

Segment 97:

Segment 98:

Segment 99:

Segment 100:

Potential/V, Current/A

0.200, -2.981e-7
0.500, 1.870e-6
0.800, 5.656e-6
1.100, 2.996e-6
0.800, -1.509e-6
0.500, -1.098e-5
0.200, -4.280e-7
0.500, 2.141e-6
0.800, 7.788e-6
1.100, 1.937e-6
0.800, -1.993e-6
0.500, -1.190e-5
0.200, -4.621e-7
0.500, 2.151e-6
0.800, 9.111e-6
1.100, 1.494e-6
0.800, -2.208e-6
0.500, -1.218e-5
0.200, -4.859e-7
0.500, 2.119e-6
0.800, 9.742e-6
1.100, 1.253e-6
0.800, -2.294e-6
0.500, -1.219e-5
0.200, -5.064e-7
0.500, 2.061e-6
0.800, 1.001e-5
1.100, 1.111e-6
0.800, -2.303e-6
0.500, -1.205e-5
0.200, -5.357e-7
0.500, 1.981e-6
0.800, 1.010e-5
1.100, 1.027e-6
0.800, -2.270e-6
0.500, -1.184e-5
0.200, -5.762e-7
0.500, 1.894e-6
0.800, 1.007e-5
1.100, 9.786e-7
0.800, -2.220e-6
0.500, -1.161e-5
0.200, -6.201e-7
0.500, 1.809e-6
0.800, 9.983e-6
1.100, 9.500e-7
0.800, -2.164e-6
0.500, -1.136e-5
0.200, -6.631e-7
0.500, 1.731e-6
0.800, 9.846e-6
1.100, 9.350e-7
0.800, -2.104e-6
0.500, -1.110e-5
0.200, -7.073e-7
0.500, 1.655e-6
0.800, 9.668e-6
1.100, 9.299e-7
0.800, -2.044e-6
0.500, -1.083e-5
0.200, -7.498e-7
0.500, 1.583e-6
0.800, 9.467e-6
1.100, 9.298e-7
0.800, -1.985e-6
0.500, -1.057e-5
0.200, -7.898e-7
0.500, 1.516e-6
0.800, 9.247e-6
1.100, 9.343e-7
0.800, -1.927e-6
0.500, -1.030e-5
0.200, -8.272e-7
0.500, 1.456e-6
0.800, 9.014e-6
1.100, 9.425e-7
0.800, -1.872e-6
0.500, -1.005e-5
0.200, -8.609e-7
0.500, 1.401e-6
0.800, 8.782e-6
1.100, 9.515e-7
0.800, -1.820e-6
0.500, -9.798e-6
0.200, -8.911e-7
0.500, 1.351e-6
0.800, 8.549e-6
1.100, 9.600e-7
0.800, -1.770e-6
0.500, -9.554e-6
0.200, -9.172e-7
0.500, 1.304e-6
0.800, 8.320e-6
1.100, 9.692e-7
0.800, -1.723e-6
0.500, -9.314e-6
0.200, -9.394e-7
0.500, 1.260e-6
0.800, 8.094e-6
1.100, 9.783e-7
0.800, -1.676e-6
0.500, -9.084e-6
0.200, -9.588e-7
0.500, 1.219e-6
0.800, 7.876e-6
1.100, 9.871e-7
0.800, -1.632e-6
0.500, -8.862e-6
0.200, -9.757e-7
0.500, 1.183e-6
0.800, 7.659e-6
1.100, 9.964e-7
0.800, -1.589e-6
0.500, -8.639e-6
0.200, -9.897e-7
0.500, 1.148e-6
0.800, 7.441e-6
1.100, 1.007e-6
0.800, -1.545e-6
0.500, -8.409e-6
0.200, -1.004e-6
0.500, 1.111e-6
0.800, 7.216e-6
1.100, 1.018e-6
0.800, -1.501e-6
0.500, -8.183e-6
0.200, -1.019e-6
0.500, 1.078e-6
0.800, 7.003e-6
1.100, 1.024e-6
0.800, -1.464e-6
0.500, -7.983e-6
0.200, -1.029e-6
0.500, 1.049e-6
0.800, 6.819e-6
1.100, 1.027e-6
0.800, -1.432e-6
0.500, -7.805e-6
0.200, -1.034e-6
0.500, 1.026e-6
0.800, 6.650e-6
1.100, 1.030e-6
0.800, -1.401e-6
0.500, -7.628e-6
0.200, -1.037e-6
0.500, 1.002e-6
0.800, 6.479e-6
1.100, 1.035e-6
0.800, -1.369e-6
0.500, -7.449e-6
0.200, -1.041e-6
0.500, 9.781e-7
0.800, 6.309e-6
1.100, 1.038e-6
0.800, -1.339e-6
0.500, -7.282e-6
0.200, -1.045e-6
0.500, 9.576e-7
0.800, 6.154e-6
1.100, 1.040e-6
0.800, -1.313e-6
0.500, -7.125e-6
0.200, -1.045e-6
0.500, 9.385e-7
0.800, 6.008e-6
1.100, 1.042e-6
0.800, -1.287e-6
0.500, -6.974e-6
0.200, -1.045e-6
0.500, 9.201e-7
0.800, 5.868e-6
1.100, 1.041e-6
0.800, -1.263e-6
0.500, -6.830e-6
0.200, -1.044e-6
0.500, 9.035e-7
0.800, 5.736e-6
1.100, 1.041e-6
0.800, -1.242e-6
0.500, -6.692e-6
0.200, -1.041e-6
0.500, 8.875e-7
0.800, 5.606e-6
1.100, 1.041e-6
0.800, -1.218e-6
0.500, -6.551e-6
0.200, -1.038e-6
0.500, 8.713e-7
0.800, 5.475e-6
1.100, 1.041e-6
0.800, -1.194e-6
0.500, -6.409e-6
0.200, -1.035e-6
0.500, 8.541e-7
0.800, 5.345e-6
1.100, 1.041e-6
0.800, -1.170e-6
0.500, -6.265e-6
0.200, -1.033e-6
0.500, 8.373e-7
0.800, 5.217e-6
1.100, 1.042e-6
0.800, -1.147e-6
0.500, -6.129e-6
0.200, -1.033e-6
0.500, 8.222e-7
0.800, 5.097e-6
1.100, 1.041e-6
0.800, -1.125e-6
0.500, -5.999e-6
0.200, -1.030e-6
0.500, 8.067e-7
0.800, 4.985e-6
1.100, 1.041e-6
0.800, -1.102e-6
0.500, -5.870e-6
0.200, -1.027e-6
0.500, 7.911e-7
0.800, 4.869e-6
1.100, 1.041e-6
0.800, -1.081e-6
0.500, -5.738e-6
0.200, -1.023e-6
0.500, 7.765e-7
0.800, 4.753e-6
1.100, 1.041e-6
0.800, -1.058e-6
0.500, -5.607e-6
0.200, -1.020e-6
0.500, 7.604e-7
0.800, 4.637e-6
1.100, 1.040e-6
0.800, -1.036e-6
0.500, -5.475e-6
0.200, -1.017e-6
0.500, 7.465e-7
0.800, 4.525e-6
1.100, 1.039e-6
0.800, -1.014e-6
0.500, -5.349e-6
0.200, -1.015e-6
0.500, 7.318e-7
0.800, 4.417e-6
1.100, 1.039e-6
0.800, -9.927e-7
0.500, -5.220e-6
0.200, -1.011e-6
0.500, 7.168e-7
0.800, 4.307e-6
1.100, 1.039e-6
0.800, -9.699e-7
0.500, -5.090e-6
0.200, -1.007e-6
0.500, 7.006e-7
0.800, 4.198e-6
1.100, 1.039e-6
0.800, -9.482e-7
0.500, -4.964e-6
0.200, -1.005e-6
0.500, 6.849e-7
0.800, 4.092e-6
1.100, 1.037e-6
0.800, -9.268e-7
0.500, -4.838e-6
0.200, -1.001e-6
0.500, 6.714e-7
0.800, 3.985e-6
1.100, 1.038e-6
0.800, -9.043e-7
0.500, -4.706e-6
0.200, -9.968e-7
0.500, 6.558e-7
0.800, 3.878e-6
1.100, 1.039e-6
0.800, -8.803e-7
0.500, -4.574e-6
0.200, -9.942e-7
0.500, 6.394e-7
0.800, 3.768e-6
1.100, 1.039e-6
0.800, -8.561e-7
0.500, -4.444e-6
0.200, -9.917e-7
0.500, 6.243e-7
0.800, 3.663e-6
1.100, 1.037e-6
0.800, -8.348e-7
0.500, -4.322e-6
0.200, -9.886e-7
0.500, 6.098e-7
0.800, 3.563e-6
1.100, 1.036e-6
0.800, -8.134e-7
0.500, -4.199e-6
0.200, -9.849e-7
0.500, 5.948e-7
0.800, 3.463e-6
1.100, 1.035e-6
0.800, -7.920e-7
0.500, -4.078e-6
0.202, -9.962e-7