File: Data/2022-03-23 MQ HCF/CV-Carbon-CuHCF-1.txt
Mar. 22, 2022   17:59:15
Cyclic Voltammetry
File: d:\mq\20220322-pba stability\cv-carbon-cuhcf-1.txt
Data Source:  Experiment
Instrument Model:  CHI840D
Header:
Note:

Init E (V) = 0.2
High E (V) = 1.1
Low E (V) = 0.2
Init P/N = P
Scan Rate (V/s) = 0.05
Segment = 100
Sample Interval (V) = 0.001
Quiet Time (sec) = 2
Sensitivity (A/V) = 1e-5

Segment 1:

Segment 2:

Segment 3:

Segment 4:

Segment 5:

Segment 6:

Segment 7:

Segment 8:

Segment 9:

Segment 10:

Segment 11:

Segment 12:

Segment 13:

Segment 14:

Segment 15:

Segment 16:

Segment 17:

Segment 18:

Segment 19:

Segment 20:

Segment 21:

Segment 22:

Segment 23:

Segment 24:

Segment 25:

Segment 26:

Segment 27:

Segment 28:

Segment 29:

Segment 30:

Segment 31:

Segment 32:

Segment 33:

Segment 34:

Segment 35:

Segment 36:

Segment 37:

Segment 38:

Segment 39:

Segment 40:

Segment 41:

Segment 42:

Segment 43:

Segment 44:

Segment 45:

Segment 46:

Segment 47:

Segment 48:

Segment 49:

Segment 50:

Segment 51:

Segment 52:

Segment 53:

Segment 54:

Segment 55:

Segment 56:

Segment 57:

Segment 58:

Segment 59:

Segment 60:

Segment 61:

Segment 62:

Segment 63:

Segment 64:

Segment 65:

Segment 66:

Segment 67:

Segment 68:

Segment 69:

Segment 70:

Segment 71:

Segment 72:

Segment 73:

Segment 74:

Segment 75:

Segment 76:

Segment 77:

Segment 78:

Segment 79:

Segment 80:

Segment 81:

Segment 82:

Segment 83:

Segment 84:

Segment 85:

Segment 86:

Segment 87:

Segment 88:

Segment 89:

Segment 90:

Segment 91:

Segment 92:

Segment 93:

Segment 94:

Segment 95:

Segment 96:

Segment 97:

Segment 98:

Segment 99:

Segment 100:

Potential/V, Current/A

0.200, -2.819e-6
0.500, 2.142e-6
0.800, 1.566e-5
1.100, 1.461e-6
0.800, -2.686e-6
0.500, -1.418e-5
0.200, -1.134e-6
0.500, 2.122e-6
0.800, 1.570e-5
1.100, 1.383e-6
0.800, -2.648e-6
0.500, -1.404e-5
0.200, -1.196e-6
0.500, 2.039e-6
0.800, 1.551e-5
1.100, 1.351e-6
0.800, -2.586e-6
0.500, -1.383e-5
0.200, -1.262e-6
0.500, 1.945e-6
0.800, 1.522e-5
1.100, 1.341e-6
0.800, -2.504e-6
0.500, -1.357e-5
0.200, -1.337e-6
0.500, 1.849e-6
0.800, 1.484e-5
1.100, 1.344e-6
0.800, -2.416e-6
0.500, -1.329e-5
0.200, -1.409e-6
0.500, 1.756e-6
0.800, 1.442e-5
1.100, 1.359e-6
0.800, -2.330e-6
0.500, -1.300e-5
0.200, -1.473e-6
0.500, 1.672e-6
0.800, 1.398e-5
1.100, 1.375e-6
0.800, -2.252e-6
0.500, -1.271e-5
0.200, -1.524e-6
0.500, 1.598e-6
0.800, 1.355e-5
1.100, 1.389e-6
0.800, -2.185e-6
0.500, -1.245e-5
0.200, -1.563e-6
0.500, 1.536e-6
0.800, 1.317e-5
1.100, 1.402e-6
0.800, -2.126e-6
0.500, -1.220e-5
0.200, -1.589e-6
0.500, 1.478e-6
0.800, 1.279e-5
1.100, 1.417e-6
0.800, -2.068e-6
0.500, -1.195e-5
0.200, -1.612e-6
0.500, 1.425e-6
0.800, 1.241e-5
1.100, 1.436e-6
0.800, -2.008e-6
0.500, -1.169e-5
0.200, -1.631e-6
0.500, 1.374e-6
0.800, 1.201e-5
1.100, 1.456e-6
0.800, -1.947e-6
0.500, -1.142e-5
0.200, -1.649e-6
0.500, 1.324e-6
0.800, 1.162e-5
1.100, 1.475e-6
0.800, -1.890e-6
0.500, -1.116e-5
0.200, -1.664e-6
0.500, 1.279e-6
0.800, 1.125e-5
1.100, 1.493e-6
0.800, -1.837e-6
0.500, -1.092e-5
0.200, -1.675e-6
0.500, 1.238e-6
0.800, 1.091e-5
1.100, 1.506e-6
0.800, -1.791e-6
0.500, -1.070e-5
0.200, -1.680e-6
0.500, 1.203e-6
0.800, 1.060e-5
1.100, 1.517e-6
0.800, -1.751e-6
0.500, -1.049e-5
0.200, -1.681e-6
0.500, 1.170e-6
0.800, 1.032e-5
1.100, 1.524e-6
0.800, -1.715e-6
0.500, -1.030e-5
0.200, -1.678e-6
0.500, 1.142e-6
0.800, 1.006e-5
1.100, 1.531e-6
0.800, -1.681e-6
0.500, -1.012e-5
0.200, -1.673e-6
0.500, 1.115e-6
0.800, 9.815e-6
1.100, 1.540e-6
0.800, -1.645e-6
0.500, -9.929e-6
0.200, -1.669e-6
0.500, 1.090e-6
0.800, 9.563e-6
1.100, 1.549e-6
0.800, -1.610e-6
0.500, -9.742e-6
0.200, -1.664e-6
0.500, 1.066e-6
0.800, 9.313e-6
1.100, 1.558e-6
0.800, -1.575e-6
0.500, -9.556e-6
0.200, -1.660e-6
0.500, 1.042e-6
0.800, 9.068e-6
1.100, 1.566e-6
0.800, -1.540e-6
0.500, -9.370e-6
0.200, -1.655e-6
0.500, 1.019e-6
0.800, 8.830e-6
1.100, 1.575e-6
0.800, -1.507e-6
0.500, -9.191e-6
0.200, -1.650e-6
0.500, 9.975e-7
0.800, 8.606e-6
1.100, 1.580e-6
0.800, -1.477e-6
0.500, -9.021e-6
0.200, -1.643e-6
0.500, 9.775e-7
0.800, 8.396e-6
1.100, 1.585e-6
0.800, -1.447e-6
0.500, -8.858e-6
0.200, -1.637e-6
0.500, 9.593e-7
0.800, 8.196e-6
1.100, 1.589e-6
0.800, -1.419e-6
0.500, -8.694e-6
0.200, -1.628e-6
0.500, 9.394e-7
0.800, 7.997e-6
1.100, 1.593e-6
0.800, -1.390e-6
0.500, -8.529e-6
0.200, -1.620e-6
0.500, 9.201e-7
0.800, 7.795e-6
1.100, 1.596e-6
0.800, -1.360e-6
0.500, -8.360e-6
0.200, -1.612e-6
0.500, 9.014e-7
0.800, 7.593e-6
1.100, 1.601e-6
0.800, -1.330e-6
0.500, -8.189e-6
0.200, -1.605e-6
0.500, 8.810e-7
0.800, 7.394e-6
1.100, 1.604e-6
0.800, -1.300e-6
0.500, -8.020e-6
0.200, -1.597e-6
0.500, 8.624e-7
0.800, 7.200e-6
1.100, 1.607e-6
0.800, -1.271e-6
0.500, -7.850e-6
0.200, -1.588e-6
0.500, 8.436e-7
0.800, 7.002e-6
1.100, 1.611e-6
0.800, -1.241e-6
0.500, -7.670e-6
0.200, -1.579e-6
0.500, 8.230e-7
0.800, 6.801e-6
1.100, 1.614e-6
0.800, -1.209e-6
0.500, -7.490e-6
0.200, -1.573e-6
0.500, 8.031e-7
0.800, 6.601e-6
1.100, 1.619e-6
0.800, -1.176e-6
0.500, -7.297e-6
0.200, -1.564e-6
0.500, 7.807e-7
0.800, 6.390e-6
1.100, 1.621e-6
0.800, -1.142e-6
0.500, -7.103e-6
0.200, -1.558e-6
0.500, 7.602e-7
0.800, 6.190e-6
1.100, 1.621e-6
0.800, -1.111e-6
0.500, -6.923e-6
0.200, -1.551e-6
0.500, 7.410e-7
0.800, 6.006e-6
1.100, 1.619e-6
0.800, -1.082e-6
0.500, -6.744e-6
0.200, -1.540e-6
0.500, 7.217e-7
0.800, 5.823e-6
1.100, 1.619e-6
0.800, -1.051e-6
0.500, -6.565e-6
0.200, -1.532e-6
0.500, 7.023e-7
0.800, 5.643e-6
1.100, 1.616e-6
0.800, -1.023e-6
0.500, -6.387e-6
0.200, -1.522e-6
0.500, 6.831e-7
0.800, 5.469e-6
1.100, 1.611e-6
0.800, -9.949e-7
0.500, -6.216e-6
0.200, -1.512e-6
0.500, 6.651e-7
0.800, 5.303e-6
1.100, 1.607e-6
0.800, -9.678e-7
0.500, -6.045e-6
0.200, -1.501e-6
0.500, 6.470e-7
0.800, 5.140e-6
1.100, 1.603e-6
0.800, -9.412e-7
0.500, -5.881e-6
0.200, -1.492e-6
0.500, 6.311e-7
0.800, 4.987e-6
1.100, 1.598e-6
0.800, -9.164e-7
0.500, -5.728e-6
0.200, -1.483e-6
0.500, 6.165e-7
0.800, 4.844e-6
1.100, 1.591e-6
0.800, -8.931e-7
0.500, -5.579e-6
0.200, -1.472e-6
0.500, 6.026e-7
0.800, 4.705e-6
1.100, 1.584e-6
0.800, -8.693e-7
0.500, -5.433e-6
0.200, -1.462e-6
0.500, 5.881e-7
0.800, 4.571e-6
1.100, 1.576e-6
0.800, -8.476e-7
0.500, -5.291e-6
0.200, -1.451e-6
0.500, 5.747e-7
0.800, 4.442e-6
1.100, 1.569e-6
0.800, -8.260e-7
0.500, -5.149e-6
0.200, -1.438e-6
0.500, 5.604e-7
0.800, 4.312e-6
1.100, 1.562e-6
0.800, -8.029e-7
0.500, -5.002e-6
0.200, -1.427e-6
0.500, 5.458e-7
0.800, 4.183e-6
1.100, 1.555e-6
0.800, -7.810e-7
0.500, -4.861e-6
0.200, -1.416e-6
0.500, 5.321e-7
0.800, 4.058e-6
1.100, 1.548e-6
0.800, -7.582e-7
0.500, -4.715e-6
0.202, -1.422e-6