File: Data/2022-03-23 MQ HCF/CV-Carbon-CoHCF-3.txt
Mar. 22, 2022   17:25:20
Cyclic Voltammetry
File: d:\mq\20220322-pba stability\cv-carbon-cohcf-3.txt
Data Source:  Experiment
Instrument Model:  CHI840D
Header:
Note:

Init E (V) = 0.2
High E (V) = 1.2
Low E (V) = 0.2
Init P/N = P
Scan Rate (V/s) = 0.05
Segment = 100
Sample Interval (V) = 0.001
Quiet Time (sec) = 2
Sensitivity (A/V) = 1e-5

Segment 1:

Segment 2:

Segment 3:

Segment 4:

Segment 5:

Segment 6:

Segment 7:

Segment 8:

Segment 9:

Segment 10:

Segment 11:

Segment 12:

Segment 13:

Segment 14:

Segment 15:

Segment 16:

Segment 17:

Segment 18:

Segment 19:

Segment 20:

Segment 21:

Segment 22:

Segment 23:

Segment 24:

Segment 25:

Segment 26:

Segment 27:

Segment 28:

Segment 29:

Segment 30:

Segment 31:

Segment 32:

Segment 33:

Segment 34:

Segment 35:

Segment 36:

Segment 37:

Segment 38:

Segment 39:

Segment 40:

Segment 41:

Segment 42:

Segment 43:

Segment 44:

Segment 45:

Segment 46:

Segment 47:

Segment 48:

Segment 49:

Segment 50:

Segment 51:

Segment 52:

Segment 53:

Segment 54:

Segment 55:

Segment 56:

Segment 57:

Segment 58:

Segment 59:

Segment 60:

Segment 61:

Segment 62:

Segment 63:

Segment 64:

Segment 65:

Segment 66:

Segment 67:

Segment 68:

Segment 69:

Segment 70:

Segment 71:

Segment 72:

Segment 73:

Segment 74:

Segment 75:

Segment 76:

Segment 77:

Segment 78:

Segment 79:

Segment 80:

Segment 81:

Segment 82:

Segment 83:

Segment 84:

Segment 85:

Segment 86:

Segment 87:

Segment 88:

Segment 89:

Segment 90:

Segment 91:

Segment 92:

Segment 93:

Segment 94:

Segment 95:

Segment 96:

Segment 97:

Segment 98:

Segment 99:

Segment 100:

Potential/V, Current/A

0.200, -5.744e-6
0.534, 3.503e-7
0.868, 7.147e-6
1.198, 7.028e-6
0.864, -1.837e-6
0.530, -5.978e-6
0.204, -3.756e-6
0.538, 7.333e-7
0.872, 7.703e-6
1.194, 6.661e-6
0.860, -1.823e-6
0.526, -6.075e-6
0.208, -3.736e-6
0.542, 7.818e-7
0.876, 7.751e-6
1.190, 6.219e-6
0.856, -1.841e-6
0.522, -6.182e-6
0.212, -3.730e-6
0.546, 8.373e-7
0.880, 7.784e-6
1.186, 5.841e-6
0.852, -1.855e-6
0.518, -6.279e-6
0.216, -3.721e-6
0.550, 8.980e-7
0.884, 7.800e-6
1.182, 5.503e-6
0.848, -1.866e-6
0.514, -6.349e-6
0.220, -3.697e-6
0.554, 9.578e-7
0.888, 7.792e-6
1.178, 5.190e-6
0.844, -1.876e-6
0.510, -6.410e-6
0.224, -3.674e-6
0.558, 1.022e-6
0.892, 7.788e-6
1.174, 4.915e-6
0.840, -1.882e-6
0.506, -6.472e-6
0.228, -3.650e-6
0.562, 1.091e-6
0.896, 7.786e-6
1.170, 4.663e-6
0.836, -1.886e-6
0.502, -6.516e-6
0.232, -3.617e-6
0.566, 1.159e-6
0.900, 7.763e-6
1.166, 4.423e-6
0.832, -1.889e-6
0.498, -6.553e-6
0.236, -3.583e-6
0.570, 1.229e-6
0.904, 7.737e-6
1.162, 4.199e-6
0.828, -1.889e-6
0.494, -6.582e-6
0.240, -3.546e-6
0.574, 1.301e-6
0.908, 7.714e-6
1.158, 3.996e-6
0.824, -1.891e-6
0.490, -6.608e-6
0.244, -3.509e-6
0.578, 1.373e-6
0.912, 7.688e-6
1.154, 3.803e-6
0.820, -1.892e-6
0.486, -6.625e-6
0.248, -3.466e-6
0.582, 1.446e-6
0.916, 7.651e-6
1.150, 3.618e-6
0.816, -1.897e-6
0.482, -6.638e-6
0.252, -3.426e-6
0.586, 1.520e-6
0.920, 7.620e-6
1.146, 3.448e-6
0.812, -1.899e-6
0.478, -6.650e-6
0.256, -3.385e-6
0.590, 1.596e-6
0.924, 7.593e-6
1.142, 3.289e-6
0.808, -1.903e-6
0.474, -6.660e-6
0.260, -3.345e-6
0.594, 1.672e-6
0.928, 7.567e-6
1.138, 3.142e-6
0.804, -1.909e-6
0.470, -6.671e-6
0.264, -3.303e-6
0.598, 1.749e-6
0.932, 7.539e-6
1.134, 3.000e-6
0.800, -1.916e-6
0.466, -6.670e-6
0.268, -3.256e-6
0.602, 1.821e-6
0.936, 7.503e-6
1.130, 2.863e-6
0.796, -1.924e-6
0.462, -6.664e-6
0.272, -3.211e-6
0.606, 1.897e-6
0.940, 7.475e-6
1.126, 2.736e-6
0.792, -1.937e-6
0.458, -6.668e-6
0.276, -3.171e-6
0.610, 1.974e-6
0.944, 7.455e-6
1.122, 2.619e-6
0.788, -1.950e-6
0.454, -6.668e-6
0.280, -3.127e-6
0.614, 2.053e-6
0.948, 7.431e-6
1.118, 2.506e-6
0.784, -1.965e-6
0.450, -6.662e-6
0.284, -3.083e-6
0.618, 2.130e-6
0.952, 7.407e-6
1.114, 2.400e-6
0.780, -1.981e-6
0.446, -6.658e-6
0.288, -3.042e-6
0.622, 2.207e-6
0.956, 7.385e-6
1.110, 2.296e-6
0.776, -1.998e-6
0.442, -6.651e-6
0.292, -2.999e-6
0.626, 2.287e-6
0.960, 7.361e-6
1.106, 2.199e-6
0.772, -2.018e-6
0.438, -6.649e-6
0.296, -2.960e-6
0.630, 2.370e-6
0.964, 7.349e-6
1.102, 2.108e-6
0.768, -2.042e-6
0.434, -6.650e-6
0.300, -2.920e-6
0.634, 2.451e-6
0.968, 7.337e-6
1.098, 2.024e-6
0.764, -2.068e-6
0.430, -6.646e-6
0.304, -2.880e-6
0.638, 2.532e-6
0.972, 7.318e-6
1.094, 1.937e-6
0.760, -2.093e-6
0.426, -6.630e-6
0.308, -2.836e-6
0.642, 2.609e-6
0.976, 7.301e-6
1.090, 1.858e-6
0.756, -2.123e-6
0.422, -6.620e-6
0.312, -2.794e-6
0.646, 2.687e-6
0.980, 7.280e-6
1.086, 1.780e-6
0.752, -2.153e-6
0.418, -6.609e-6
0.316, -2.751e-6
0.650, 2.765e-6
0.984, 7.267e-6
1.082, 1.707e-6
0.748, -2.186e-6
0.414, -6.600e-6
0.320, -2.711e-6
0.654, 2.844e-6
0.988, 7.250e-6
1.078, 1.634e-6
0.744, -2.220e-6
0.410, -6.586e-6
0.324, -2.668e-6
0.658, 2.921e-6
0.992, 7.231e-6
1.074, 1.562e-6
0.740, -2.255e-6
0.406, -6.566e-6
0.328, -2.622e-6
0.662, 2.995e-6
0.996, 7.208e-6
1.070, 1.494e-6
0.736, -2.291e-6
0.402, -6.551e-6
0.332, -2.582e-6
0.666, 3.074e-6
1.000, 7.197e-6
1.066, 1.430e-6
0.732, -2.334e-6
0.398, -6.544e-6
0.336, -2.543e-6
0.670, 3.155e-6
1.004, 7.189e-6
1.062, 1.369e-6
0.728, -2.379e-6
0.394, -6.531e-6
0.340, -2.501e-6
0.674, 3.232e-6
1.008, 7.177e-6
1.058, 1.309e-6
0.724, -2.424e-6
0.390, -6.520e-6
0.344, -2.461e-6
0.678, 3.309e-6
1.012, 7.168e-6
1.054, 1.251e-6
0.720, -2.473e-6
0.386, -6.507e-6
0.348, -2.418e-6
0.682, 3.386e-6
1.016, 7.160e-6
1.050, 1.194e-6
0.716, -2.524e-6
0.382, -6.495e-6
0.352, -2.379e-6
0.686, 3.465e-6
1.020, 7.151e-6
1.046, 1.140e-6
0.712, -2.575e-6
0.378, -6.484e-6
0.356, -2.337e-6
0.690, 3.542e-6
1.024, 7.144e-6
1.042, 1.087e-6
0.708, -2.629e-6
0.374, -6.472e-6
0.360, -2.295e-6
0.694, 3.616e-6
1.028, 7.133e-6
1.038, 1.036e-6
0.704, -2.682e-6
0.370, -6.456e-6
0.364, -2.253e-6
0.698, 3.688e-6
1.032, 7.120e-6
1.034, 9.842e-7
0.700, -2.736e-6
0.366, -6.433e-6
0.368, -2.209e-6
0.702, 3.757e-6
1.036, 7.103e-6
1.030, 9.347e-7
0.696, -2.793e-6
0.362, -6.420e-6
0.372, -2.167e-6
0.706, 3.831e-6
1.040, 7.094e-6
1.026, 8.866e-7
0.692, -2.852e-6
0.358, -6.406e-6
0.376, -2.124e-6
0.710, 3.902e-6
1.044, 7.084e-6
1.022, 8.395e-7
0.688, -2.913e-6
0.354, -6.390e-6
0.380, -2.082e-6
0.714, 3.973e-6
1.048, 7.077e-6
1.018, 7.939e-7
0.684, -2.977e-6
0.350, -6.375e-6
0.384, -2.038e-6
0.718, 4.042e-6
1.052, 7.066e-6
1.014, 7.489e-7
0.680, -3.039e-6
0.346, -6.357e-6
0.388, -1.995e-6
0.722, 4.111e-6
1.056, 7.059e-6
1.010, 7.055e-7
0.676, -3.106e-6
0.342, -6.348e-6
0.392, -1.952e-6
0.726, 4.181e-6
1.060, 7.051e-6
1.006, 6.619e-7
0.672, -3.170e-6
0.338, -6.328e-6
0.396, -1.908e-6
0.730, 4.243e-6
1.064, 7.038e-6
1.002, 6.206e-7
0.668, -3.235e-6
0.334, -6.309e-6
0.201, -5.554e-6