File: Data/2022-03-23 MQ HCF/CV-Carbon-FeHCF-2.txt
Mar. 22, 2022   15:00:47
Cyclic Voltammetry
File: d:\mq\20220322-pba stability\cv-carbon-fehcf-2.txt
Data Source:  Experiment
Instrument Model:  CHI840D
Header:
Note:

Init E (V) = -0.3
High E (V) = 0.5
Low E (V) = -0.3
Init P/N = P
Scan Rate (V/s) = 0.05
Segment = 100
Sample Interval (V) = 0.001
Quiet Time (sec) = 2
Sensitivity (A/V) = 1e-5

Segment 1:

Segment 2:

Segment 3:

Segment 4:

Segment 5:

Segment 6:

Segment 7:

Segment 8:

Segment 9:

Segment 10:

Segment 11:

Segment 12:

Segment 13:

Segment 14:

Segment 15:

Segment 16:

Segment 17:

Segment 18:

Segment 19:

Segment 20:

Segment 21:

Segment 22:

Segment 23:

Segment 24:

Segment 25:

Segment 26:

Segment 27:

Segment 28:

Segment 29:

Segment 30:

Segment 31:

Segment 32:

Segment 33:

Segment 34:

Segment 35:

Segment 36:

Segment 37:

Segment 38:

Segment 39:
Ep = 0.114V
ip = 1.497e-6A
Ah = 1.141e-6C

Segment 40:
Ep = -0.048V
ip = -9.913e-7A
Ah = -1.748e-6C

Segment 41:
Ep = 0.112V
ip = 1.296e-6A
Ah = 7.502e-7C

Segment 42:
Ep = -0.045V
ip = -1.108e-6A
Ah = -1.691e-6C

Segment 43:
Ep = 0.110V
ip = 1.169e-6A
Ah = 5.083e-7C

Segment 44:
Ep = -0.043V
ip = -1.144e-6A
Ah = -1.531e-6C

Segment 45:
Ep = 0.109V
ip = 1.107e-6A
Ah = 3.939e-7C

Segment 46:
Ep = -0.043V
ip = -1.099e-6A
Ah = -1.396e-6C

Segment 47:
Ep = 0.109V
ip = 1.064e-6A
Ah = 3.431e-7C

Segment 48:
Ep = -0.041V
ip = -1.094e-6A
Ah = -1.196e-6C

Segment 49:
Ep = 0.108V
ip = 1.038e-6A
Ah = 2.932e-7C

Segment 50:
Ep = -0.041V
ip = -1.034e-6A
Ah = -1.073e-6C

Segment 51:
Ep = 0.108V
ip = 1.034e-6A
Ah = 2.816e-7C

Segment 52:
Ep = -0.038V
ip = -1.021e-6A
Ah = -9.157e-7C

Segment 53:
Ep = 0.107V
ip = 1.027e-6A
Ah = 2.555e-7C

Segment 54:
Ep = -0.035V
ip = -9.575e-7A
Ah = -7.774e-7C

Segment 55:
Ep = 0.107V
ip = 1.024e-6A
Ah = 2.567e-7C

Segment 56:
Ep = -0.037V
ip = -9.643e-7A
Ah = -7.470e-7C

Segment 57:
Ep = 0.108V
ip = 1.036e-6A
Ah = 2.760e-7C

Segment 58:
Ep = -0.037V
ip = -9.170e-7A
Ah = -6.777e-7C

Segment 59:
Ep = 0.108V
ip = 1.040e-6A
Ah = 2.768e-7C

Segment 60:
Ep = -0.033V
ip = -8.870e-7A
Ah = -5.651e-7C

Segment 61:
Ep = 0.108V
ip = 1.045e-6A
Ah = 2.773e-7C

Segment 62:
Ep = -0.035V
ip = -8.866e-7A
Ah = -5.553e-7C

Segment 63:
Ep = 0.107V
ip = 1.040e-6A
Ah = 2.563e-7C

Segment 64:
Ep = -0.033V
ip = -8.579e-7A
Ah = -4.754e-7C

Segment 65:
Ep = 0.108V
ip = 1.035e-6A
Ah = 2.809e-7C

Segment 66:
Ep = -0.034V
ip = -8.299e-7A
Ah = -4.740e-7C

Segment 67:
Ep = 0.107V
ip = 1.037e-6A
Ah = 2.615e-7C

Segment 68:
Ep = -0.033V
ip = -8.215e-7A
Ah = -4.395e-7C

Segment 69:
Ep = 0.108V
ip = 1.025e-6A
Ah = 2.806e-7C

Segment 70:
Ep = -0.034V
ip = -8.034e-7A
Ah = -4.297e-7C

Segment 71:
Ep = 0.107V
ip = 1.019e-6A
Ah = 2.598e-7C

Segment 72:
Ep = -0.035V
ip = -7.514e-7A
Ah = -4.195e-7C

Segment 73:

Segment 74:
Ep = -0.034V
ip = -7.654e-7A
Ah = -4.015e-7C

Segment 75:

Segment 76:
Ep = -0.035V
ip = -8.117e-7A
Ah = -4.052e-7C

Segment 77:

Segment 78:
Ep = -0.033V
ip = -7.696e-7A
Ah = -3.598e-7C

Segment 79:

Segment 80:
Ep = -0.032V
ip = -7.140e-7A
Ah = -3.423e-7C

Segment 81:

Segment 82:
Ep = -0.035V
ip = -8.270e-7A
Ah = -3.847e-7C

Segment 83:

Segment 84:
Ep = -0.032V
ip = -7.330e-7A
Ah = -3.259e-7C

Segment 85:

Segment 86:
Ep = -0.030V
ip = -7.245e-7A
Ah = -3.090e-7C

Segment 87:

Segment 88:
Ep = -0.033V
ip = -7.283e-7A
Ah = -3.318e-7C

Segment 89:

Segment 90:
Ep = -0.034V
ip = -7.378e-7A
Ah = -3.312e-7C

Segment 91:

Segment 92:
Ep = -0.032V
ip = -7.193e-7A
Ah = -3.076e-7C

Segment 93:

Segment 94:
Ep = -0.033V
ip = -7.297e-7A
Ah = -3.329e-7C

Segment 95:

Segment 96:
Ep = -0.035V
ip = -6.572e-7A
Ah = -3.250e-7C

Segment 97:

Segment 98:
Ep = -0.032V
ip = -6.812e-7A
Ah = -3.018e-7C

Segment 99:

Segment 100:
Ep = -0.035V
ip = -7.213e-7A
Ah = -3.377e-7C

Potential/V, Current/A

-0.300, -4.080e-6
-0.033, 4.165e-6
0.234, 1.118e-5
0.499, 3.711e-7
0.232, -2.659e-6
-0.035, -1.079e-5
-0.298, -1.890e-6
-0.031, 4.092e-6
0.236, 1.114e-5
0.497, 3.787e-7
0.230, -2.412e-6
-0.037, -1.079e-5
-0.296, -1.718e-6
-0.029, 3.977e-6
0.238, 1.094e-5
0.495, 3.950e-7
0.228, -2.322e-6
-0.039, -1.062e-5
-0.294, -1.650e-6
-0.027, 3.864e-6
0.240, 1.070e-5
0.493, 4.174e-7
0.226, -2.262e-6
-0.041, -1.040e-5
-0.292, -1.596e-6
-0.025, 3.747e-6
0.242, 1.044e-5
0.491, 4.390e-7
0.224, -2.206e-6
-0.043, -1.014e-5
-0.290, -1.573e-6
-0.023, 3.611e-6
0.244, 1.015e-5
0.489, 4.657e-7
0.222, -2.140e-6
-0.045, -9.840e-6
-0.288, -1.564e-6
-0.021, 3.459e-6
0.246, 9.822e-6
0.487, 5.044e-7
0.220, -2.065e-6
-0.047, -9.501e-6
-0.286, -1.572e-6
-0.019, 3.287e-6
0.248, 9.447e-6
0.485, 5.564e-7
0.218, -1.978e-6
-0.049, -9.127e-6
-0.284, -1.584e-6
-0.017, 3.094e-6
0.250, 9.028e-6
0.483, 6.217e-7
0.216, -1.879e-6
-0.051, -8.717e-6
-0.282, -1.600e-6
-0.015, 2.879e-6
0.252, 8.571e-6
0.481, 6.981e-7
0.214, -1.768e-6
-0.053, -8.280e-6
-0.280, -1.620e-6
-0.013, 2.641e-6
0.254, 8.076e-6
0.479, 7.849e-7
0.212, -1.641e-6
-0.055, -7.807e-6
-0.278, -1.640e-6
-0.011, 2.380e-6
0.256, 7.532e-6
0.477, 8.796e-7
0.210, -1.496e-6
-0.057, -7.329e-6
-0.276, -1.659e-6
-0.009, 2.099e-6
0.258, 6.946e-6
0.475, 9.851e-7
0.208, -1.336e-6
-0.059, -6.865e-6
-0.274, -1.672e-6
-0.007, 1.811e-6
0.260, 6.334e-6
0.473, 1.089e-6
0.206, -1.169e-6
-0.061, -6.379e-6
-0.272, -1.675e-6
-0.005, 1.518e-6
0.262, 5.698e-6
0.471, 1.186e-6
0.204, -9.960e-7
-0.063, -5.884e-6
-0.270, -1.663e-6
-0.003, 1.238e-6
0.264, 5.065e-6
0.469, 1.268e-6
0.202, -8.274e-7
-0.065, -5.293e-6
-0.268, -1.634e-6
-0.001, 9.889e-7
0.266, 4.452e-6
0.467, 1.327e-6
0.200, -6.746e-7
-0.067, -4.641e-6
-0.266, -1.590e-6
0.001, 7.812e-7
0.268, 3.880e-6
0.465, 1.355e-6
0.198, -5.443e-7
-0.069, -4.037e-6
-0.264, -1.532e-6
0.003, 6.126e-7
0.270, 3.364e-6
0.463, 1.357e-6
0.196, -4.372e-7
-0.071, -3.499e-6
-0.262, -1.468e-6
0.005, 4.837e-7
0.272, 2.906e-6
0.461, 1.337e-6
0.194, -3.521e-7
-0.073, -3.047e-6
-0.260, -1.395e-6
0.007, 3.889e-7
0.274, 2.510e-6
0.459, 1.298e-6
0.192, -2.870e-7
-0.075, -2.655e-6
-0.258, -1.322e-6
0.009, 3.217e-7
0.276, 2.172e-6
0.457, 1.243e-6
0.190, -2.401e-7
-0.077, -2.363e-6
-0.256, -1.245e-6
0.011, 2.737e-7
0.278, 1.892e-6
0.455, 1.180e-6
0.188, -2.064e-7
-0.079, -2.082e-6
-0.254, -1.171e-6
0.013, 2.400e-7
0.280, 1.656e-6
0.453, 1.110e-6
0.186, -1.824e-7
-0.081, -1.854e-6
-0.252, -1.091e-6
0.015, 2.171e-7
0.282, 1.461e-6
0.451, 1.036e-6
0.184, -1.655e-7
-0.083, -1.662e-6
-0.250, -1.016e-6
0.017, 2.008e-7
0.284, 1.302e-6
0.449, 9.600e-7
0.182, -1.544e-7
-0.085, -1.506e-6
-0.248, -9.433e-7
0.019, 1.903e-7
0.286, 1.172e-6
0.447, 8.898e-7
0.180, -1.465e-7
-0.087, -1.383e-6
-0.246, -8.777e-7
0.021, 1.827e-7
0.288, 1.067e-6
0.445, 8.251e-7
0.178, -1.431e-7
-0.089, -1.307e-6
-0.244, -8.153e-7
0.023, 1.779e-7
0.290, 9.851e-7
0.443, 7.662e-7
0.176, -1.408e-7
-0.091, -1.227e-6
-0.242, -7.702e-7
0.025, 1.752e-7
0.292, 9.206e-7
0.441, 7.126e-7
0.174, -1.402e-7
-0.093, -1.178e-6
-0.240, -7.124e-7
0.027, 1.737e-7
0.294, 8.662e-7
0.439, 6.632e-7
0.172, -1.407e-7
-0.095, -1.099e-6
-0.238, -6.641e-7
0.029, 1.723e-7
0.296, 8.244e-7
0.437, 6.200e-7
0.170, -1.417e-7
-0.097, -1.045e-6
-0.236, -6.213e-7
0.031, 1.722e-7
0.298, 7.890e-7
0.435, 5.805e-7
0.168, -1.424e-7
-0.099, -1.010e-6
-0.234, -5.847e-7
0.033, 1.722e-7
0.300, 7.587e-7
0.433, 5.445e-7
0.166, -1.435e-7
-0.101, -9.944e-7
-0.232, -5.469e-7
0.035, 1.723e-7
0.302, 7.330e-7
0.431, 5.106e-7
0.164, -1.448e-7
-0.103, -9.624e-7
-0.230, -5.148e-7
0.037, 1.727e-7
0.304, 7.104e-7
0.429, 4.804e-7
0.162, -1.466e-7
-0.105, -9.149e-7
-0.228, -4.843e-7
0.039, 1.731e-7
0.306, 6.902e-7
0.427, 4.529e-7
0.160, -1.482e-7
-0.107, -8.860e-7
-0.226, -4.554e-7
0.041, 1.737e-7
0.308, 6.740e-7
0.425, 4.264e-7
0.158, -1.499e-7
-0.109, -8.707e-7
-0.224, -4.285e-7
0.043, 1.745e-7
0.310, 6.606e-7
0.423, 4.035e-7
0.156, -1.516e-7
-0.111, -8.603e-7
-0.222, -4.049e-7
0.045, 1.754e-7
0.312, 6.497e-7
0.421, 3.816e-7
0.154, -1.537e-7
-0.113, -8.438e-7
-0.220, -3.814e-7
0.047, 1.762e-7
0.314, 6.386e-7
0.419, 3.606e-7
0.152, -1.561e-7
-0.115, -8.226e-7
-0.218, -3.601e-7
0.049, 1.772e-7
0.316, 6.290e-7
0.417, 3.415e-7
0.150, -1.577e-7
-0.117, -8.087e-7
-0.216, -3.402e-7
0.051, 1.783e-7
0.318, 6.220e-7
0.415, 3.250e-7
0.148, -1.600e-7
-0.119, -8.003e-7
-0.214, -3.220e-7
0.053, 1.795e-7
0.320, 6.148e-7
0.413, 3.095e-7
0.146, -1.618e-7
-0.121, -7.849e-7
-0.212, -3.025e-7
0.055, 1.804e-7
0.322, 6.097e-7
0.411, 2.937e-7
0.144, -1.632e-7
-0.123, -7.717e-7
-0.210, -2.869e-7
0.057, 1.812e-7
0.324, 6.043e-7
0.409, 2.778e-7
0.142, -1.649e-7
-0.125, -7.647e-7
-0.208, -2.699e-7
0.059, 1.822e-7
0.326, 5.988e-7
0.407, 2.669e-7
0.140, -1.670e-7
-0.127, -7.785e-7
-0.206, -2.551e-7
0.061, 1.835e-7
0.328, 5.952e-7
0.405, 2.519e-7
0.138, -1.693e-7
-0.129, -7.573e-7
-0.204, -2.426e-7
0.063, 1.845e-7
0.330, 5.909e-7
0.403, 2.391e-7
0.136, -1.713e-7
-0.131, -7.353e-7
-0.202, -2.264e-7
0.065, 1.861e-7
0.332, 5.887e-7
0.401, 2.273e-7
0.134, -1.731e-7
-0.133, -7.213e-7
-0.298, -1.455e-6