File: Data/2022-03-23 MQ HCF/CV-Carbon-NiHCF-1.txt
Mar. 22, 2022   11:19:03
Cyclic Voltammetry
File: d:\mq\20220322-pba stability\cv-carbon-nihcf-1.txt
Data Source:  Experiment
Instrument Model:  CHI840D
Header:
Note:

Init E (V) = 0
High E (V) = 0.8
Low E (V) = 0
Init P/N = P
Scan Rate (V/s) = 0.05
Segment = 100
Sample Interval (V) = 0.001
Quiet Time (sec) = 2
Sensitivity (A/V) = 1e-4

Segment 1:
Ep = 0.465V
ip = 4.647e-5A
Ah = 1.055e-4C

Segment 2:
Ep = 0.283V
ip = -2.375e-5A
Ah = -4.365e-5C

Segment 3:
Ep = 0.464V
ip = 4.673e-5A
Ah = 1.062e-4C

Segment 4:
Ep = 0.282V
ip = -2.347e-5A
Ah = -4.336e-5C

Segment 5:
Ep = 0.464V
ip = 4.706e-5A
Ah = 1.070e-4C

Segment 6:
Ep = 0.282V
ip = -2.320e-5A
Ah = -4.273e-5C

Segment 7:
Ep = 0.464V
ip = 4.746e-5A
Ah = 1.078e-4C

Segment 8:
Ep = 0.282V
ip = -2.289e-5A
Ah = -4.212e-5C

Segment 9:
Ep = 0.464V
ip = 4.783e-5A
Ah = 1.084e-4C

Segment 10:
Ep = 0.282V
ip = -2.264e-5A
Ah = -4.161e-5C

Segment 11:
Ep = 0.464V
ip = 4.816e-5A
Ah = 1.091e-4C

Segment 12:
Ep = 0.281V
ip = -2.224e-5A
Ah = -4.163e-5C

Segment 13:
Ep = 0.464V
ip = 4.849e-5A
Ah = 1.097e-4C

Segment 14:
Ep = 0.281V
ip = -2.194e-5A
Ah = -4.114e-5C

Segment 15:
Ep = 0.464V
ip = 4.880e-5A
Ah = 1.102e-4C

Segment 16:
Ep = 0.281V
ip = -2.169e-5A
Ah = -4.069e-5C

Segment 17:
Ep = 0.464V
ip = 4.903e-5A
Ah = 1.107e-4C

Segment 18:
Ep = 0.281V
ip = -2.142e-5A
Ah = -4.025e-5C

Segment 19:
Ep = 0.465V
ip = 4.922e-5A
Ah = 1.121e-4C

Segment 20:
Ep = 0.281V
ip = -2.117e-5A
Ah = -3.985e-5C

Segment 21:
Ep = 0.464V
ip = 4.958e-5A
Ah = 1.116e-4C

Segment 22:
Ep = 0.281V
ip = -2.094e-5A
Ah = -3.952e-5C

Segment 23:
Ep = 0.464V
ip = 4.982e-5A
Ah = 1.120e-4C

Segment 24:
Ep = 0.281V
ip = -2.072e-5A
Ah = -3.918e-5C

Segment 25:
Ep = 0.465V
ip = 4.959e-5A
Ah = 1.124e-4C

Segment 26:
Ep = 0.281V
ip = -2.046e-5A
Ah = -3.882e-5C

Segment 27:
Ep = 0.465V
ip = 4.981e-5A
Ah = 1.128e-4C

Segment 28:
Ep = 0.281V
ip = -2.026e-5A
Ah = -3.855e-5C

Segment 29:
Ep = 0.465V
ip = 5.003e-5A
Ah = 1.132e-4C

Segment 30:
Ep = 0.281V
ip = -2.069e-5A
Ah = -4.055e-5C

Segment 31:
Ep = 0.465V
ip = 5.021e-5A
Ah = 1.135e-4C

Segment 32:
Ep = 0.281V
ip = -2.088e-5A
Ah = -4.119e-5C

Segment 33:
Ep = 0.465V
ip = 5.043e-5A
Ah = 1.138e-4C

Segment 34:
Ep = 0.281V
ip = -2.107e-5A
Ah = -4.184e-5C

Segment 35:
Ep = 0.465V
ip = 5.062e-5A
Ah = 1.142e-4C

Segment 36:
Ep = 0.281V
ip = -2.129e-5A
Ah = -4.253e-5C

Segment 37:
Ep = 0.465V
ip = 5.078e-5A
Ah = 1.144e-4C

Segment 38:
Ep = 0.281V
ip = -2.149e-5A
Ah = -4.320e-5C

Segment 39:
Ep = 0.465V
ip = 5.094e-5A
Ah = 1.147e-4C

Segment 40:
Ep = 0.281V
ip = -2.174e-5A
Ah = -4.389e-5C

Segment 41:
Ep = 0.465V
ip = 5.108e-5A
Ah = 1.150e-4C

Segment 42:
Ep = 0.281V
ip = -2.202e-5A
Ah = -4.461e-5C

Segment 43:
Ep = 0.465V
ip = 5.121e-5A
Ah = 1.152e-4C

Segment 44:
Ep = 0.281V
ip = -2.222e-5A
Ah = -4.528e-5C

Segment 45:
Ep = 0.465V
ip = 5.136e-5A
Ah = 1.155e-4C

Segment 46:
Ep = 0.281V
ip = -2.245e-5A
Ah = -4.598e-5C

Segment 47:
Ep = 0.465V
ip = 5.152e-5A
Ah = 1.157e-4C

Segment 48:
Ep = 0.281V
ip = -2.270e-5A
Ah = -4.666e-5C

Segment 49:
Ep = 0.465V
ip = 5.162e-5A
Ah = 1.159e-4C

Segment 50:
Ep = 0.281V
ip = -2.298e-5A
Ah = -4.737e-5C

Segment 51:
Ep = 0.465V
ip = 5.170e-5A
Ah = 1.161e-4C

Segment 52:
Ep = 0.281V
ip = -2.323e-5A
Ah = -4.805e-5C

Segment 53:
Ep = 0.465V
ip = 5.182e-5A
Ah = 1.163e-4C

Segment 54:
Ep = 0.281V
ip = -2.349e-5A
Ah = -4.874e-5C

Segment 55:
Ep = 0.465V
ip = 5.198e-5A
Ah = 1.165e-4C

Segment 56:
Ep = 0.281V
ip = -2.369e-5A
Ah = -4.940e-5C

Segment 57:
Ep = 0.466V
ip = 5.167e-5A
Ah = 1.167e-4C

Segment 58:
Ep = 0.281V
ip = -2.390e-5A
Ah = -5.004e-5C

Segment 59:
Ep = 0.466V
ip = 5.181e-5A
Ah = 1.169e-4C

Segment 60:
Ep = 0.281V
ip = -2.418e-5A
Ah = -5.074e-5C

Segment 61:
Ep = 0.466V
ip = 5.186e-5A
Ah = 1.171e-4C

Segment 62:
Ep = 0.281V
ip = -2.446e-5A
Ah = -5.144e-5C

Segment 63:
Ep = 0.466V
ip = 5.198e-5A
Ah = 1.173e-4C

Segment 64:
Ep = 0.281V
ip = -2.470e-5A
Ah = -5.207e-5C

Segment 65:
Ep = 0.466V
ip = 5.204e-5A
Ah = 1.174e-4C

Segment 66:
Ep = 0.281V
ip = -2.494e-5A
Ah = -5.276e-5C

Segment 67:
Ep = 0.466V
ip = 5.215e-5A
Ah = 1.176e-4C

Segment 68:
Ep = 0.281V
ip = -2.521e-5A
Ah = -5.343e-5C

Segment 69:
Ep = 0.466V
ip = 5.222e-5A
Ah = 1.178e-4C

Segment 70:
Ep = 0.280V
ip = -2.528e-5A
Ah = -5.460e-5C

Segment 71:
Ep = 0.466V
ip = 5.232e-5A
Ah = 1.179e-4C

Segment 72:
Ep = 0.281V
ip = -2.568e-5A
Ah = -5.476e-5C

Segment 73:
Ep = 0.466V
ip = 5.241e-5A
Ah = 1.181e-4C

Segment 74:
Ep = 0.282V
ip = -2.590e-5A
Ah = -5.542e-5C

Segment 75:
Ep = 0.465V
ip = 5.254e-5A
Ah = 1.182e-4C

Segment 76:
Ep = 0.282V
ip = -2.612e-5A
Ah = -5.603e-5C

Segment 77:
Ep = 0.465V
ip = 5.262e-5A
Ah = 1.184e-4C

Segment 78:
Ep = 0.282V
ip = -2.634e-5A
Ah = -5.663e-5C

Segment 79:
Ep = 0.465V
ip = 5.276e-5A
Ah = 1.185e-4C

Segment 80:
Ep = 0.282V
ip = -2.654e-5A
Ah = -5.723e-5C

Segment 81:
Ep = 0.465V
ip = 5.293e-5A
Ah = 1.186e-4C

Segment 82:
Ep = 0.282V
ip = -2.670e-5A
Ah = -5.781e-5C

Segment 83:
Ep = 0.465V
ip = 5.306e-5A
Ah = 1.188e-4C

Segment 84:
Ep = 0.282V
ip = -2.692e-5A
Ah = -5.841e-5C

Segment 85:
Ep = 0.465V
ip = 5.312e-5A
Ah = 1.189e-4C

Segment 86:
Ep = 0.282V
ip = -2.718e-5A
Ah = -5.903e-5C

Segment 87:
Ep = 0.465V
ip = 5.319e-5A
Ah = 1.191e-4C

Segment 88:
Ep = 0.282V
ip = -2.740e-5A
Ah = -5.962e-5C

Segment 89:
Ep = 0.465V
ip = 5.326e-5A
Ah = 1.192e-4C

Segment 90:
Ep = 0.282V
ip = -2.760e-5A
Ah = -6.018e-5C

Segment 91:
Ep = 0.465V
ip = 5.336e-5A
Ah = 1.193e-4C

Segment 92:
Ep = 0.282V
ip = -2.779e-5A
Ah = -6.073e-5C

Segment 93:
Ep = 0.465V
ip = 5.346e-5A
Ah = 1.194e-4C

Segment 94:
Ep = 0.282V
ip = -2.793e-5A
Ah = -6.124e-5C

Segment 95:
Ep = 0.466V
ip = 5.349e-5A
Ah = 1.206e-4C

Segment 96:
Ep = 0.282V
ip = -2.815e-5A
Ah = -6.178e-5C

Segment 97:
Ep = 0.465V
ip = 5.359e-5A
Ah = 1.196e-4C

Segment 98:
Ep = 0.282V
ip = -2.838e-5A
Ah = -6.232e-5C

Segment 99:
Ep = 0.465V
ip = 5.368e-5A
Ah = 1.198e-4C

Segment 100:
Ep = 0.282V
ip = -2.858e-5A
Ah = -6.284e-5C

Potential/V, Current/A

0.000, -7.331e-7
0.267, 1.190e-5
0.534, 4.460e-5
0.799, 1.962e-6
0.532, -1.391e-5
0.265, -7.163e-5
0.002, -1.283e-6
0.269, 1.241e-5
0.536, 4.206e-5
0.797, 1.756e-6
0.530, -1.396e-5
0.263, -7.151e-5
0.004, -1.235e-6
0.271, 1.284e-5
0.538, 4.034e-5
0.795, 1.648e-6
0.528, -1.405e-5
0.261, -7.120e-5
0.006, -1.201e-6
0.273, 1.323e-5
0.540, 3.883e-5
0.793, 1.558e-6
0.526, -1.415e-5
0.259, -7.076e-5
0.008, -1.168e-6
0.275, 1.364e-5
0.542, 3.735e-5
0.791, 1.485e-6
0.524, -1.427e-5
0.257, -7.026e-5
0.010, -1.139e-6
0.277, 1.407e-5
0.544, 3.585e-5
0.789, 1.423e-6
0.522, -1.441e-5
0.255, -6.966e-5
0.012, -1.114e-6
0.279, 1.450e-5
0.546, 3.445e-5
0.787, 1.367e-6
0.520, -1.455e-5
0.253, -6.893e-5
0.014, -1.090e-6
0.281, 1.494e-5
0.548, 3.306e-5
0.785, 1.317e-6
0.518, -1.470e-5
0.251, -6.815e-5
0.016, -1.067e-6
0.283, 1.543e-5
0.550, 3.167e-5
0.783, 1.271e-6
0.516, -1.487e-5
0.249, -6.727e-5
0.018, -1.047e-6
0.285, 1.590e-5
0.552, 3.035e-5
0.781, 1.228e-6
0.514, -1.504e-5
0.247, -6.627e-5
0.020, -1.025e-6
0.287, 1.639e-5
0.554, 2.905e-5
0.779, 1.192e-6
0.512, -1.525e-5
0.245, -6.520e-5
0.022, -1.005e-6
0.289, 1.690e-5
0.556, 2.779e-5
0.777, 1.155e-6
0.510, -1.544e-5
0.243, -6.402e-5
0.024, -9.860e-7
0.291, 1.739e-5
0.558, 2.661e-5
0.775, 1.123e-6
0.508, -1.564e-5
0.241, -6.268e-5
0.026, -9.669e-7
0.293, 1.793e-5
0.560, 2.542e-5
0.773, 1.091e-6
0.506, -1.585e-5
0.239, -6.131e-5
0.028, -9.483e-7
0.295, 1.847e-5
0.562, 2.429e-5
0.771, 1.060e-6
0.504, -1.607e-5
0.237, -5.983e-5
0.030, -9.306e-7
0.297, 1.903e-5
0.564, 2.319e-5
0.769, 1.030e-6
0.502, -1.630e-5
0.235, -5.825e-5
0.032, -9.143e-7
0.299, 1.959e-5
0.566, 2.216e-5
0.767, 1.002e-6
0.500, -1.653e-5
0.233, -5.659e-5
0.034, -8.986e-7
0.301, 2.018e-5
0.568, 2.117e-5
0.765, 9.770e-7
0.498, -1.678e-5
0.231, -5.485e-5
0.036, -8.811e-7
0.303, 2.079e-5
0.570, 2.023e-5
0.763, 9.533e-7
0.496, -1.703e-5
0.229, -5.304e-5
0.038, -8.654e-7
0.305, 2.141e-5
0.572, 1.932e-5
0.761, 9.317e-7
0.494, -1.728e-5
0.227, -5.122e-5
0.040, -8.496e-7
0.307, 2.206e-5
0.574, 1.846e-5
0.759, 9.099e-7
0.492, -1.753e-5
0.225, -4.935e-5
0.042, -8.331e-7
0.309, 2.273e-5
0.576, 1.765e-5
0.757, 8.860e-7
0.490, -1.780e-5
0.223, -4.738e-5
0.044, -8.172e-7
0.311, 2.340e-5
0.578, 1.688e-5
0.755, 8.632e-7
0.488, -1.807e-5
0.221, -4.541e-5
0.046, -8.019e-7
0.313, 2.407e-5
0.580, 1.615e-5
0.753, 8.437e-7
0.486, -1.834e-5
0.219, -4.347e-5
0.048, -7.843e-7
0.315, 2.478e-5
0.582, 1.544e-5
0.751, 8.244e-7
0.484, -1.861e-5
0.217, -4.156e-5
0.050, -7.663e-7
0.317, 2.552e-5
0.584, 1.474e-5
0.749, 8.045e-7
0.482, -1.890e-5
0.215, -3.963e-5
0.052, -7.497e-7
0.319, 2.624e-5
0.586, 1.411e-5
0.747, 7.861e-7
0.480, -1.918e-5
0.213, -3.775e-5
0.054, -7.347e-7
0.321, 2.696e-5
0.588, 1.352e-5
0.745, 7.677e-7
0.478, -1.948e-5
0.211, -3.584e-5
0.056, -7.179e-7
0.323, 2.764e-5
0.590, 1.298e-5
0.743, 7.492e-7
0.476, -1.977e-5
0.209, -3.396e-5
0.058, -7.016e-7
0.325, 2.838e-5
0.592, 1.243e-5
0.741, 7.315e-7
0.474, -2.006e-5
0.207, -3.226e-5
0.060, -6.873e-7
0.327, 2.918e-5
0.594, 1.189e-5
0.739, 7.148e-7
0.472, -2.034e-5
0.205, -3.065e-5
0.062, -6.720e-7
0.329, 2.995e-5
0.596, 1.141e-5
0.737, 6.996e-7
0.470, -2.064e-5
0.203, -2.911e-5
0.064, -6.587e-7
0.331, 3.076e-5
0.598, 1.094e-5
0.735, 6.842e-7
0.468, -2.095e-5
0.201, -2.761e-5
0.066, -6.456e-7
0.333, 3.156e-5
0.600, 1.051e-5
0.733, 6.694e-7
0.466, -2.126e-5
0.199, -2.624e-5
0.068, -6.339e-7
0.335, 3.238e-5
0.602, 1.010e-5
0.731, 6.536e-7
0.464, -2.159e-5
0.197, -2.492e-5
0.070, -6.208e-7
0.337, 3.318e-5
0.604, 9.726e-6
0.729, 6.391e-7
0.462, -2.194e-5
0.195, -2.363e-5
0.072, -6.098e-7
0.339, 3.400e-5
0.606, 9.364e-6
0.727, 6.229e-7
0.460, -2.229e-5
0.194, -2.245e-5
0.073, -5.961e-7
0.340, 3.480e-5
0.607, 9.029e-6
0.726, 6.076e-7
0.459, -2.265e-5
0.192, -2.136e-5
0.075, -5.838e-7
0.342, 3.565e-5
0.609, 8.698e-6
0.724, 5.917e-7
0.457, -2.301e-5
0.190, -2.034e-5
0.077, -5.701e-7
0.344, 3.646e-5
0.611, 8.394e-6
0.722, 5.773e-7
0.455, -2.340e-5
0.188, -1.934e-5
0.079, -5.541e-7
0.346, 3.724e-5
0.613, 8.114e-6
0.720, 5.618e-7
0.453, -2.380e-5
0.186, -1.840e-5
0.081, -5.408e-7
0.348, 3.804e-5
0.615, 7.840e-6
0.718, 5.477e-7
0.451, -2.418e-5
0.184, -1.754e-5
0.083, -5.258e-7
0.350, 3.894e-5
0.617, 7.557e-6
0.716, 5.327e-7
0.449, -2.458e-5
0.182, -1.675e-5
0.085, -5.140e-7
0.352, 3.981e-5
0.619, 7.300e-6
0.714, 5.176e-7
0.447, -2.499e-5
0.180, -1.600e-5
0.087, -5.028e-7
0.354, 4.067e-5
0.621, 7.056e-6
0.712, 5.031e-7
0.445, -2.542e-5
0.178, -1.531e-5
0.089, -4.904e-7
0.356, 4.152e-5
0.623, 6.823e-6
0.710, 4.880e-7
0.443, -2.586e-5
0.176, -1.466e-5
0.091, -4.782e-7
0.358, 4.237e-5
0.625, 6.615e-6
0.708, 4.749e-7
0.441, -2.633e-5
0.174, -1.406e-5
0.093, -4.684e-7
0.360, 4.324e-5
0.627, 6.408e-6
0.706, 4.622e-7
0.439, -2.679e-5
0.172, -1.347e-5
0.095, -4.509e-7
0.362, 4.418e-5
0.629, 6.213e-6
0.704, 4.495e-7
0.437, -2.727e-5
0.170, -1.294e-5
0.097, -4.432e-7
0.364, 4.506e-5
0.631, 6.043e-6
0.702, 4.359e-7
0.435, -2.777e-5
0.168, -1.245e-5
0.003, -1.912e-6