File: Data/2022-03-23 MQ HCF/CV-Carbon-CoHCF-1.txt
Mar. 22, 2022   16:10:38
Cyclic Voltammetry
File: d:\mq\20220322-pba stability\cv-carbon-cohcf-1.txt
Data Source:  Experiment
Instrument Model:  CHI840D
Header:
Note:

Init E (V) = 0.2
High E (V) = 1.2
Low E (V) = 0.2
Init P/N = P
Scan Rate (V/s) = 0.05
Segment = 100
Sample Interval (V) = 0.001
Quiet Time (sec) = 2
Sensitivity (A/V) = 1e-5

Segment 1:

Segment 2:

Segment 3:

Segment 4:

Segment 5:

Segment 6:

Segment 7:

Segment 8:

Segment 9:

Segment 10:

Segment 11:

Segment 12:

Segment 13:

Segment 14:

Segment 15:

Segment 16:

Segment 17:

Segment 18:

Segment 19:

Segment 20:

Segment 21:

Segment 22:

Segment 23:

Segment 24:

Segment 25:

Segment 26:

Segment 27:

Segment 28:

Segment 29:

Segment 30:

Segment 31:

Segment 32:

Segment 33:

Segment 34:

Segment 35:

Segment 36:

Segment 37:

Segment 38:

Segment 39:

Segment 40:

Segment 41:

Segment 42:

Segment 43:

Segment 44:

Segment 45:

Segment 46:

Segment 47:

Segment 48:

Segment 49:

Segment 50:

Segment 51:

Segment 52:

Segment 53:

Segment 54:

Segment 55:

Segment 56:

Segment 57:

Segment 58:

Segment 59:

Segment 60:

Segment 61:

Segment 62:

Segment 63:

Segment 64:

Segment 65:

Segment 66:

Segment 67:

Segment 68:

Segment 69:

Segment 70:

Segment 71:

Segment 72:

Segment 73:

Segment 74:

Segment 75:

Segment 76:

Segment 77:

Segment 78:

Segment 79:

Segment 80:

Segment 81:

Segment 82:

Segment 83:

Segment 84:

Segment 85:

Segment 86:

Segment 87:

Segment 88:

Segment 89:

Segment 90:

Segment 91:

Segment 92:

Segment 93:

Segment 94:

Segment 95:

Segment 96:

Segment 97:

Segment 98:

Segment 99:

Segment 100:

Potential/V, Current/A

0.200, -3.634e-6
0.534, 6.703e-7
0.868, 5.643e-6
1.198, 6.852e-6
0.864, -1.193e-6
0.530, -4.518e-6
0.204, -2.864e-6
0.538, 8.355e-7
0.872, 6.084e-6
1.194, 6.067e-6
0.860, -1.355e-6
0.526, -4.788e-6
0.208, -2.936e-6
0.542, 8.609e-7
0.876, 6.219e-6
1.190, 5.532e-6
0.856, -1.452e-6
0.522, -4.974e-6
0.212, -2.972e-6
0.546, 9.000e-7
0.880, 6.303e-6
1.186, 5.109e-6
0.852, -1.509e-6
0.518, -5.106e-6
0.216, -2.987e-6
0.550, 9.480e-7
0.884, 6.344e-6
1.182, 4.758e-6
0.848, -1.540e-6
0.514, -5.210e-6
0.220, -2.992e-6
0.554, 1.002e-6
0.888, 6.360e-6
1.178, 4.455e-6
0.844, -1.555e-6
0.510, -5.298e-6
0.224, -2.988e-6
0.558, 1.061e-6
0.892, 6.359e-6
1.174, 4.179e-6
0.840, -1.565e-6
0.506, -5.350e-6
0.228, -2.967e-6
0.562, 1.116e-6
0.896, 6.342e-6
1.170, 3.934e-6
0.836, -1.571e-6
0.502, -5.405e-6
0.232, -2.950e-6
0.566, 1.178e-6
0.900, 6.329e-6
1.166, 3.714e-6
0.832, -1.574e-6
0.498, -5.444e-6
0.236, -2.922e-6
0.570, 1.237e-6
0.904, 6.303e-6
1.162, 3.512e-6
0.828, -1.577e-6
0.494, -5.480e-6
0.240, -2.894e-6
0.574, 1.300e-6
0.908, 6.280e-6
1.158, 3.329e-6
0.824, -1.581e-6
0.490, -5.506e-6
0.244, -2.859e-6
0.578, 1.360e-6
0.912, 6.253e-6
1.154, 3.158e-6
0.820, -1.586e-6
0.486, -5.530e-6
0.248, -2.825e-6
0.582, 1.422e-6
0.916, 6.221e-6
1.150, 2.990e-6
0.816, -1.593e-6
0.482, -5.531e-6
0.252, -2.778e-6
0.586, 1.477e-6
0.920, 6.173e-6
1.146, 2.830e-6
0.812, -1.596e-6
0.478, -5.534e-6
0.256, -2.737e-6
0.590, 1.538e-6
0.924, 6.133e-6
1.142, 2.684e-6
0.808, -1.596e-6
0.474, -5.535e-6
0.260, -2.696e-6
0.594, 1.600e-6
0.928, 6.098e-6
1.138, 2.550e-6
0.804, -1.598e-6
0.470, -5.547e-6
0.264, -2.665e-6
0.598, 1.668e-6
0.932, 6.074e-6
1.134, 2.429e-6
0.800, -1.602e-6
0.466, -5.554e-6
0.268, -2.627e-6
0.602, 1.733e-6
0.936, 6.041e-6
1.130, 2.311e-6
0.796, -1.606e-6
0.462, -5.551e-6
0.272, -2.587e-6
0.606, 1.796e-6
0.940, 6.010e-6
1.126, 2.198e-6
0.792, -1.613e-6
0.458, -5.553e-6
0.276, -2.549e-6
0.610, 1.861e-6
0.944, 5.982e-6
1.122, 2.094e-6
0.788, -1.623e-6
0.454, -5.547e-6
0.280, -2.507e-6
0.614, 1.921e-6
0.948, 5.949e-6
1.118, 1.995e-6
0.784, -1.633e-6
0.450, -5.548e-6
0.284, -2.473e-6
0.618, 1.988e-6
0.952, 5.928e-6
1.114, 1.902e-6
0.780, -1.646e-6
0.446, -5.536e-6
0.288, -2.429e-6
0.622, 2.049e-6
0.956, 5.896e-6
1.110, 1.813e-6
0.776, -1.658e-6
0.442, -5.524e-6
0.292, -2.389e-6
0.626, 2.111e-6
0.960, 5.872e-6
1.106, 1.731e-6
0.772, -1.673e-6
0.438, -5.523e-6
0.296, -2.354e-6
0.630, 2.177e-6
0.964, 5.854e-6
1.102, 1.654e-6
0.768, -1.689e-6
0.434, -5.522e-6
0.300, -2.319e-6
0.634, 2.243e-6
0.968, 5.838e-6
1.098, 1.580e-6
0.764, -1.708e-6
0.430, -5.516e-6
0.304, -2.283e-6
0.638, 2.309e-6
0.972, 5.818e-6
1.094, 1.508e-6
0.760, -1.728e-6
0.426, -5.508e-6
0.308, -2.246e-6
0.642, 2.375e-6
0.976, 5.802e-6
1.090, 1.440e-6
0.756, -1.749e-6
0.422, -5.501e-6
0.312, -2.209e-6
0.646, 2.437e-6
0.980, 5.782e-6
1.086, 1.373e-6
0.752, -1.771e-6
0.418, -5.483e-6
0.316, -2.169e-6
0.650, 2.496e-6
0.984, 5.757e-6
1.082, 1.307e-6
0.748, -1.793e-6
0.414, -5.459e-6
0.320, -2.127e-6
0.654, 2.554e-6
0.988, 5.731e-6
1.078, 1.243e-6
0.744, -1.816e-6
0.410, -5.448e-6
0.324, -2.092e-6
0.658, 2.618e-6
0.992, 5.719e-6
1.074, 1.187e-6
0.740, -1.843e-6
0.406, -5.435e-6
0.328, -2.053e-6
0.662, 2.677e-6
0.996, 5.697e-6
1.070, 1.131e-6
0.736, -1.870e-6
0.402, -5.424e-6
0.332, -2.018e-6
0.666, 2.742e-6
1.000, 5.689e-6
1.066, 1.079e-6
0.732, -1.902e-6
0.398, -5.418e-6
0.336, -1.983e-6
0.670, 2.805e-6
1.004, 5.678e-6
1.062, 1.029e-6
0.728, -1.936e-6
0.394, -5.408e-6
0.340, -1.948e-6
0.674, 2.867e-6
1.008, 5.668e-6
1.058, 9.798e-7
0.724, -1.970e-6
0.390, -5.399e-6
0.344, -1.914e-6
0.678, 2.929e-6
1.012, 5.660e-6
1.054, 9.331e-7
0.720, -2.006e-6
0.386, -5.385e-6
0.348, -1.876e-6
0.682, 2.988e-6
1.016, 5.646e-6
1.050, 8.855e-7
0.716, -2.043e-6
0.382, -5.362e-6
0.352, -1.837e-6
0.686, 3.041e-6
1.020, 5.627e-6
1.046, 8.397e-7
0.712, -2.078e-6
0.378, -5.350e-6
0.356, -1.801e-6
0.690, 3.100e-6
1.024, 5.618e-6
1.042, 7.974e-7
0.708, -2.114e-6
0.374, -5.340e-6
0.360, -1.765e-6
0.694, 3.158e-6
1.028, 5.608e-6
1.038, 7.563e-7
0.704, -2.151e-6
0.370, -5.325e-6
0.364, -1.728e-6
0.698, 3.213e-6
1.032, 5.594e-6
1.034, 7.155e-7
0.700, -2.187e-6
0.366, -5.308e-6
0.368, -1.691e-6
0.702, 3.267e-6
1.036, 5.581e-6
1.030, 6.752e-7
0.696, -2.228e-6
0.362, -5.296e-6
0.372, -1.654e-6
0.706, 3.323e-6
1.040, 5.571e-6
1.026, 6.378e-7
0.692, -2.270e-6
0.358, -5.287e-6
0.376, -1.619e-6
0.710, 3.384e-6
1.044, 5.574e-6
1.022, 6.068e-7
0.688, -2.318e-6
0.354, -5.282e-6
0.380, -1.580e-6
0.714, 3.448e-6
1.048, 5.575e-6
1.018, 5.705e-7
0.684, -2.372e-6
0.350, -5.258e-6
0.384, -1.542e-6
0.718, 3.497e-6
1.052, 5.566e-6
1.014, 5.320e-7
0.680, -2.425e-6
0.346, -5.249e-6
0.388, -1.508e-6
0.722, 3.553e-6
1.056, 5.566e-6
1.010, 4.968e-7
0.676, -2.480e-6
0.342, -5.242e-6
0.392, -1.472e-6
0.726, 3.603e-6
1.060, 5.561e-6
1.006, 4.626e-7
0.672, -2.528e-6
0.338, -5.224e-6
0.396, -1.434e-6
0.730, 3.647e-6
1.064, 5.552e-6
1.002, 4.300e-7
0.668, -2.575e-6
0.334, -5.212e-6
0.201, -4.587e-6