File: Data/2022-03-23 MQ HCF/CV-Carbon-CuHCF-3.txt
Mar. 22, 2022   20:19:18
Cyclic Voltammetry
File: d:\mq\20220322-pba stability\cv-carbon-cuhcf-3.txt
Data Source:  Experiment
Instrument Model:  CHI840D
Header:
Note:

Init E (V) = 0.2
High E (V) = 1.1
Low E (V) = 0.2
Init P/N = P
Scan Rate (V/s) = 0.05
Segment = 100
Sample Interval (V) = 0.001
Quiet Time (sec) = 2
Sensitivity (A/V) = 1e-5

Segment 1:
Ep = 0.713V
ip = 5.862e-6A
Ah = 1.407e-5C

Segment 2:

Segment 3:
Ep = 0.718V
ip = 5.921e-6A
Ah = 1.452e-5C

Segment 4:

Segment 5:
Ep = 0.721V
ip = 5.749e-6A
Ah = 1.439e-5C

Segment 6:

Segment 7:
Ep = 0.723V
ip = 5.523e-6A
Ah = 1.406e-5C

Segment 8:

Segment 9:
Ep = 0.724V
ip = 5.309e-6A
Ah = 1.364e-5C

Segment 10:

Segment 11:

Segment 12:

Segment 13:

Segment 14:

Segment 15:

Segment 16:

Segment 17:

Segment 18:

Segment 19:

Segment 20:

Segment 21:

Segment 22:

Segment 23:

Segment 24:

Segment 25:

Segment 26:

Segment 27:

Segment 28:

Segment 29:

Segment 30:

Segment 31:

Segment 32:

Segment 33:

Segment 34:

Segment 35:
Ep = 0.709V
ip = 3.142e-6A
Ah = 8.058e-6C

Segment 36:

Segment 37:
Ep = 0.708V
ip = 3.027e-6A
Ah = 7.768e-6C

Segment 38:

Segment 39:
Ep = 0.707V
ip = 2.900e-6A
Ah = 7.434e-6C

Segment 40:

Segment 41:
Ep = 0.705V
ip = 2.800e-6A
Ah = 7.097e-6C

Segment 42:

Segment 43:
Ep = 0.705V
ip = 2.699e-6A
Ah = 6.892e-6C

Segment 44:

Segment 45:
Ep = 0.703V
ip = 2.618e-6A
Ah = 6.602e-6C

Segment 46:

Segment 47:
Ep = 0.702V
ip = 2.539e-6A
Ah = 6.379e-6C

Segment 48:

Segment 49:
Ep = 0.702V
ip = 2.461e-6A
Ah = 6.218e-6C

Segment 50:

Segment 51:
Ep = 0.701V
ip = 2.387e-6A
Ah = 6.006e-6C

Segment 52:

Segment 53:
Ep = 0.700V
ip = 2.300e-6A
Ah = 5.761e-6C

Segment 54:

Segment 55:
Ep = 0.699V
ip = 2.236e-6A
Ah = 5.569e-6C

Segment 56:

Segment 57:
Ep = 0.699V
ip = 2.154e-6A
Ah = 5.391e-6C

Segment 58:

Segment 59:
Ep = 0.699V
ip = 2.045e-6A
Ah = 5.150e-6C

Segment 60:

Segment 61:
Ep = 0.698V
ip = 1.957e-6A
Ah = 4.911e-6C

Segment 62:

Segment 63:
Ep = 0.697V
ip = 1.876e-6A
Ah = 4.690e-6C

Segment 64:

Segment 65:
Ep = 0.696V
ip = 1.783e-6A
Ah = 4.438e-6C

Segment 66:
Ep = 0.539V
ip = -6.941e-7A
Ah = -1.787e-6C

Segment 67:
Ep = 0.696V
ip = 1.708e-6A
Ah = 4.269e-6C

Segment 68:
Ep = 0.540V
ip = -6.706e-7A
Ah = -1.711e-6C

Segment 69:
Ep = 0.695V
ip = 1.624e-6A
Ah = 4.036e-6C

Segment 70:
Ep = 0.541V
ip = -6.451e-7A
Ah = -1.632e-6C

Segment 71:
Ep = 0.694V
ip = 1.551e-6A
Ah = 3.834e-6C

Segment 72:
Ep = 0.541V
ip = -6.201e-7A
Ah = -1.576e-6C

Segment 73:
Ep = 0.694V
ip = 1.461e-6A
Ah = 3.631e-6C

Segment 74:
Ep = 0.541V
ip = -5.862e-7A
Ah = -1.499e-6C

Segment 75:
Ep = 0.694V
ip = 1.386e-6A
Ah = 3.458e-6C

Segment 76:
Ep = 0.542V
ip = -5.644e-7A
Ah = -1.427e-6C

Segment 77:
Ep = 0.693V
ip = 1.305e-6A
Ah = 3.239e-6C

Segment 78:
Ep = 0.543V
ip = -5.365e-7A
Ah = -1.340e-6C

Segment 79:
Ep = 0.693V
ip = 1.235e-6A
Ah = 3.076e-6C

Segment 80:
Ep = 0.543V
ip = -5.110e-7A
Ah = -1.281e-6C

Segment 81:
Ep = 0.693V
ip = 1.158e-6A
Ah = 2.898e-6C

Segment 82:
Ep = 0.543V
ip = -4.814e-7A
Ah = -1.211e-6C

Segment 83:
Ep = 0.692V
ip = 1.089e-6A
Ah = 2.707e-6C

Segment 84:
Ep = 0.544V
ip = -4.550e-7A
Ah = -1.132e-6C

Segment 85:
Ep = 0.693V
ip = 1.023e-6A
Ah = 2.576e-6C

Segment 86:
Ep = 0.544V
ip = -4.341e-7A
Ah = -1.085e-6C

Segment 87:
Ep = 0.692V
ip = 9.638e-7A
Ah = 2.409e-6C

Segment 88:
Ep = 0.544V
ip = -4.094e-7A
Ah = -1.027e-6C

Segment 89:
Ep = 0.692V
ip = 9.028e-7A
Ah = 2.262e-6C

Segment 90:
Ep = 0.545V
ip = -3.882e-7A
Ah = -9.608e-7C

Segment 91:
Ep = 0.692V
ip = 8.457e-7A
Ah = 2.123e-6C

Segment 92:
Ep = 0.545V
ip = -3.707e-7A
Ah = -9.224e-7C

Segment 93:
Ep = 0.692V
ip = 7.902e-7A
Ah = 1.989e-6C

Segment 94:
Ep = 0.546V
ip = -3.511e-7A
Ah = -8.579e-7C

Segment 95:
Ep = 0.692V
ip = 7.342e-7A
Ah = 1.852e-6C

Segment 96:
Ep = 0.546V
ip = -3.255e-7A
Ah = -7.954e-7C

Segment 97:
Ep = 0.692V
ip = 6.772e-7A
Ah = 1.714e-6C

Segment 98:
Ep = 0.547V
ip = -3.026e-7A
Ah = -7.285e-7C

Segment 99:
Ep = 0.693V
ip = 6.242e-7A
Ah = 1.596e-6C

Segment 100:
Ep = 0.546V
ip = -2.780e-7A
Ah = -6.790e-7C

Potential/V, Current/A

0.200, -5.215e-7
0.500, 1.610e-6
0.800, 6.614e-6
1.100, 1.321e-6
0.800, -1.748e-6
0.500, -9.742e-6
0.200, -5.365e-7
0.500, 1.477e-6
0.800, 6.973e-6
1.100, 1.137e-6
0.800, -1.725e-6
0.500, -9.534e-6
0.200, -6.121e-7
0.500, 1.382e-6
0.800, 7.125e-6
1.100, 1.049e-6
0.800, -1.682e-6
0.500, -9.284e-6
0.200, -6.726e-7
0.500, 1.305e-6
0.800, 7.148e-6
1.100, 1.000e-6
0.800, -1.628e-6
0.500, -9.004e-6
0.200, -7.244e-7
0.500, 1.233e-6
0.800, 7.084e-6
1.100, 9.788e-7
0.800, -1.564e-6
0.500, -8.680e-6
0.200, -7.711e-7
0.500, 1.162e-6
0.800, 6.927e-6
1.100, 9.748e-7
0.800, -1.488e-6
0.500, -8.304e-6
0.200, -8.184e-7
0.500, 1.088e-6
0.800, 6.682e-6
1.100, 9.820e-7
0.800, -1.408e-6
0.500, -7.899e-6
0.200, -8.639e-7
0.500, 1.018e-6
0.800, 6.387e-6
1.100, 9.938e-7
0.800, -1.333e-6
0.500, -7.503e-6
0.200, -9.019e-7
0.500, 9.538e-7
0.800, 6.079e-6
1.100, 1.006e-6
0.800, -1.263e-6
0.500, -7.124e-6
0.200, -9.291e-7
0.500, 8.985e-7
0.800, 5.774e-6
1.100, 1.017e-6
0.800, -1.203e-6
0.500, -6.767e-6
0.200, -9.473e-7
0.500, 8.485e-7
0.800, 5.482e-6
1.100, 1.027e-6
0.800, -1.145e-6
0.500, -6.416e-6
0.200, -9.602e-7
0.500, 8.019e-7
0.800, 5.190e-6
1.100, 1.037e-6
0.800, -1.087e-6
0.500, -6.064e-6
0.200, -9.686e-7
0.500, 7.588e-7
0.800, 4.902e-6
1.100, 1.045e-6
0.800, -1.033e-6
0.500, -5.737e-6
0.200, -9.757e-7
0.500, 7.209e-7
0.800, 4.634e-6
1.100, 1.049e-6
0.800, -9.850e-7
0.500, -5.437e-6
0.200, -9.759e-7
0.500, 6.870e-7
0.800, 4.389e-6
1.100, 1.050e-6
0.800, -9.414e-7
0.500, -5.158e-6
0.200, -9.729e-7
0.500, 6.570e-7
0.800, 4.167e-6
1.100, 1.049e-6
0.800, -9.014e-7
0.500, -4.908e-6
0.200, -9.686e-7
0.500, 6.303e-7
0.800, 3.970e-6
1.100, 1.046e-6
0.800, -8.651e-7
0.500, -4.679e-6
0.200, -9.610e-7
0.500, 6.074e-7
0.800, 3.782e-6
1.100, 1.042e-6
0.800, -8.322e-7
0.500, -4.461e-6
0.200, -9.542e-7
0.500, 5.862e-7
0.800, 3.606e-6
1.100, 1.040e-6
0.800, -7.988e-7
0.500, -4.253e-6
0.200, -9.479e-7
0.500, 5.649e-7
0.800, 3.442e-6
1.100, 1.035e-6
0.800, -7.672e-7
0.500, -4.058e-6
0.200, -9.421e-7
0.500, 5.448e-7
0.800, 3.292e-6
1.100, 1.029e-6
0.800, -7.390e-7
0.500, -3.882e-6
0.200, -9.358e-7
0.500, 5.271e-7
0.800, 3.157e-6
1.100, 1.022e-6
0.800, -7.140e-7
0.500, -3.723e-6
0.200, -9.275e-7
0.500, 5.113e-7
0.800, 3.031e-6
1.100, 1.014e-6
0.800, -6.911e-7
0.500, -3.576e-6
0.200, -9.197e-7
0.500, 4.968e-7
0.800, 2.915e-6
1.100, 1.007e-6
0.800, -6.699e-7
0.500, -3.440e-6
0.200, -9.114e-7
0.500, 4.831e-7
0.800, 2.808e-6
1.100, 1.000e-6
0.800, -6.493e-7
0.500, -3.311e-6
0.200, -9.031e-7
0.500, 4.704e-7
0.800, 2.707e-6
1.100, 9.941e-7
0.800, -6.293e-7
0.500, -3.186e-6
0.200, -8.956e-7
0.500, 4.577e-7
0.800, 2.611e-6
1.100, 9.868e-7
0.800, -6.104e-7
0.500, -3.068e-6
0.200, -8.855e-7
0.500, 4.454e-7
0.800, 2.516e-6
1.100, 9.789e-7
0.800, -5.914e-7
0.500, -2.946e-6
0.200, -8.734e-7
0.500, 4.320e-7
0.800, 2.418e-6
1.100, 9.756e-7
0.800, -5.687e-7
0.500, -2.813e-6
0.200, -8.649e-7
0.500, 4.173e-7
0.800, 2.312e-6
1.100, 9.728e-7
0.800, -5.444e-7
0.500, -2.677e-6
0.200, -8.588e-7
0.500, 4.017e-7
0.800, 2.208e-6
1.100, 9.677e-7
0.800, -5.217e-7
0.500, -2.551e-6
0.200, -8.528e-7
0.500, 3.870e-7
0.800, 2.110e-6
1.100, 9.618e-7
0.800, -5.010e-7
0.500, -2.430e-6
0.200, -8.470e-7
0.500, 3.734e-7
0.800, 2.017e-6
1.100, 9.549e-7
0.800, -4.812e-7
0.500, -2.319e-6
0.200, -8.405e-7
0.500, 3.598e-7
0.800, 1.930e-6
1.100, 9.476e-7
0.800, -4.617e-7
0.500, -2.211e-6
0.200, -8.306e-7
0.500, 3.465e-7
0.800, 1.848e-6
1.100, 9.408e-7
0.800, -4.437e-7
0.500, -2.102e-6
0.200, -8.208e-7
0.500, 3.339e-7
0.800, 1.762e-6
1.100, 9.364e-7
0.800, -4.243e-7
0.500, -1.995e-6
0.200, -8.113e-7
0.500, 3.227e-7
0.800, 1.677e-6
1.100, 9.286e-7
0.800, -4.063e-7
0.500, -1.892e-6
0.200, -8.034e-7
0.500, 3.103e-7
0.800, 1.594e-6
1.100, 9.214e-7
0.800, -3.884e-7
0.500, -1.791e-6
0.200, -7.945e-7
0.500, 2.982e-7
0.800, 1.514e-6
1.100, 9.131e-7
0.800, -3.711e-7
0.500, -1.697e-6
0.200, -7.864e-7
0.500, 2.870e-7
0.800, 1.438e-6
1.100, 9.063e-7
0.800, -3.548e-7
0.500, -1.606e-6
0.200, -7.790e-7
0.500, 2.765e-7
0.800, 1.365e-6
1.100, 8.988e-7
0.800, -3.394e-7
0.500, -1.520e-6
0.200, -7.720e-7
0.500, 2.660e-7
0.800, 1.297e-6
1.100, 8.899e-7
0.800, -3.254e-7
0.500, -1.443e-6
0.200, -7.646e-7
0.500, 2.561e-7
0.800, 1.235e-6
1.100, 8.812e-7
0.800, -3.124e-7
0.500, -1.370e-6
0.200, -7.534e-7
0.500, 2.470e-7
0.800, 1.175e-6
1.100, 8.734e-7
0.800, -2.999e-7
0.500, -1.298e-6
0.200, -7.425e-7
0.500, 2.385e-7
0.800, 1.116e-6
1.100, 8.633e-7
0.800, -2.878e-7
0.500, -1.231e-6
0.200, -7.329e-7
0.500, 2.303e-7
0.800, 1.060e-6
1.100, 8.532e-7
0.800, -2.765e-7
0.500, -1.166e-6
0.200, -7.236e-7
0.500, 2.226e-7
0.800, 1.007e-6
1.100, 8.455e-7
0.800, -2.653e-7
0.500, -1.103e-6
0.200, -7.131e-7
0.500, 2.154e-7
0.800, 9.533e-7
1.100, 8.395e-7
0.800, -2.534e-7
0.500, -1.037e-6
0.200, -7.018e-7
0.500, 2.069e-7
0.800, 8.991e-7
1.100, 8.304e-7
0.800, -2.419e-7
0.500, -9.745e-7
0.200, -6.921e-7
0.500, 1.990e-7
0.800, 8.473e-7
1.100, 8.210e-7
0.800, -2.313e-7
0.500, -9.160e-7
0.202, -6.932e-7