File: Data/2022-03-23 MQ HCF/CV-Carbon-FeHCF-3.txt
Mar. 22, 2022   15:32:52
Cyclic Voltammetry
File: d:\mq\20220322-pba stability\cv-carbon-fehcf-3.txt
Data Source:  Experiment
Instrument Model:  CHI840D
Header:
Note:

Init E (V) = -0.3
High E (V) = 0.5
Low E (V) = -0.3
Init P/N = P
Scan Rate (V/s) = 0.05
Segment = 100
Sample Interval (V) = 0.001
Quiet Time (sec) = 2
Sensitivity (A/V) = 1e-5

Segment 1:

Segment 2:

Segment 3:

Segment 4:

Segment 5:

Segment 6:

Segment 7:

Segment 8:

Segment 9:

Segment 10:

Segment 11:

Segment 12:

Segment 13:

Segment 14:

Segment 15:

Segment 16:

Segment 17:

Segment 18:

Segment 19:

Segment 20:

Segment 21:

Segment 22:

Segment 23:

Segment 24:

Segment 25:

Segment 26:

Segment 27:

Segment 28:

Segment 29:

Segment 30:

Segment 31:

Segment 32:

Segment 33:

Segment 34:

Segment 35:

Segment 36:

Segment 37:

Segment 38:

Segment 39:

Segment 40:

Segment 41:

Segment 42:

Segment 43:

Segment 44:

Segment 45:

Segment 46:

Segment 47:

Segment 48:

Segment 49:

Segment 50:

Segment 51:

Segment 52:

Segment 53:

Segment 54:

Segment 55:

Segment 56:

Segment 57:

Segment 58:

Segment 59:

Segment 60:

Segment 61:

Segment 62:

Segment 63:

Segment 64:

Segment 65:

Segment 66:

Segment 67:

Segment 68:

Segment 69:

Segment 70:

Segment 71:

Segment 72:

Segment 73:

Segment 74:

Segment 75:

Segment 76:

Segment 77:

Segment 78:

Segment 79:

Segment 80:

Segment 81:

Segment 82:

Segment 83:

Segment 84:

Segment 85:

Segment 86:

Segment 87:

Segment 88:

Segment 89:

Segment 90:

Segment 91:

Segment 92:

Segment 93:

Segment 94:

Segment 95:

Segment 96:

Segment 97:

Segment 98:

Segment 99:

Segment 100:

Potential/V, Current/A

-0.300, -6.606e-6
-0.033, 6.266e-6
0.234, 1.792e-5
0.499, 8.503e-7
0.232, -3.972e-6
-0.035, -1.762e-5
-0.298, -2.933e-6
-0.031, 5.897e-6
0.236, 1.773e-5
0.497, 9.405e-7
0.230, -3.406e-6
-0.037, -1.763e-5
-0.296, -2.818e-6
-0.029, 5.518e-6
0.238, 1.732e-5
0.495, 1.028e-6
0.228, -3.159e-6
-0.039, -1.725e-5
-0.294, -2.799e-6
-0.027, 5.186e-6
0.240, 1.684e-5
0.493, 1.122e-6
0.226, -2.984e-6
-0.041, -1.675e-5
-0.292, -2.818e-6
-0.025, 4.875e-6
0.242, 1.632e-5
0.491, 1.226e-6
0.224, -2.828e-6
-0.043, -1.617e-5
-0.290, -2.852e-6
-0.023, 4.556e-6
0.244, 1.574e-5
0.489, 1.345e-6
0.222, -2.672e-6
-0.045, -1.552e-5
-0.288, -2.906e-6
-0.021, 4.229e-6
0.246, 1.509e-5
0.487, 1.478e-6
0.220, -2.509e-6
-0.047, -1.479e-5
-0.286, -2.966e-6
-0.019, 3.874e-6
0.248, 1.435e-5
0.485, 1.633e-6
0.218, -2.324e-6
-0.049, -1.398e-5
-0.284, -3.029e-6
-0.017, 3.485e-6
0.250, 1.352e-5
0.483, 1.807e-6
0.216, -2.114e-6
-0.051, -1.309e-5
-0.282, -3.097e-6
-0.015, 3.080e-6
0.252, 1.259e-5
0.481, 2.006e-6
0.214, -1.885e-6
-0.053, -1.214e-5
-0.280, -3.162e-6
-0.013, 2.661e-6
0.254, 1.158e-5
0.479, 2.218e-6
0.212, -1.641e-6
-0.055, -1.113e-5
-0.278, -3.210e-6
-0.011, 2.240e-6
0.256, 1.052e-5
0.477, 2.430e-6
0.210, -1.391e-6
-0.057, -1.009e-5
-0.276, -3.236e-6
-0.009, 1.835e-6
0.258, 9.420e-6
0.475, 2.617e-6
0.208, -1.148e-6
-0.059, -9.042e-6
-0.274, -3.230e-6
-0.007, 1.461e-6
0.260, 8.334e-6
0.473, 2.757e-6
0.206, -9.195e-7
-0.061, -8.012e-6
-0.272, -3.190e-6
-0.005, 1.131e-6
0.262, 7.278e-6
0.471, 2.844e-6
0.204, -7.101e-7
-0.063, -7.006e-6
-0.270, -3.120e-6
-0.003, 8.524e-7
0.264, 6.278e-6
0.469, 2.879e-6
0.202, -5.313e-7
-0.065, -6.063e-6
-0.268, -3.019e-6
-0.001, 6.317e-7
0.266, 5.361e-6
0.467, 2.855e-6
0.200, -3.893e-7
-0.067, -5.225e-6
-0.266, -2.894e-6
0.001, 4.741e-7
0.268, 4.566e-6
0.465, 2.790e-6
0.198, -2.839e-7
-0.069, -4.491e-6
-0.264, -2.754e-6
0.003, 3.596e-7
0.270, 3.888e-6
0.463, 2.689e-6
0.196, -2.114e-7
-0.071, -3.871e-6
-0.262, -2.604e-6
0.005, 2.859e-7
0.272, 3.333e-6
0.461, 2.554e-6
0.194, -1.656e-7
-0.073, -3.361e-6
-0.260, -2.447e-6
0.007, 2.364e-7
0.274, 2.867e-6
0.459, 2.389e-6
0.192, -1.362e-7
-0.075, -2.923e-6
-0.258, -2.281e-6
0.009, 2.037e-7
0.276, 2.471e-6
0.457, 2.216e-6
0.190, -1.156e-7
-0.077, -2.542e-6
-0.256, -2.120e-6
0.011, 1.843e-7
0.278, 2.157e-6
0.455, 2.058e-6
0.188, -1.074e-7
-0.079, -2.238e-6
-0.254, -1.968e-6
0.013, 1.727e-7
0.280, 1.911e-6
0.453, 1.907e-6
0.186, -1.054e-7
-0.081, -1.996e-6
-0.252, -1.830e-6
0.015, 1.669e-7
0.282, 1.717e-6
0.451, 1.764e-6
0.184, -1.072e-7
-0.083, -1.802e-6
-0.250, -1.699e-6
0.017, 1.643e-7
0.284, 1.559e-6
0.449, 1.633e-6
0.182, -1.099e-7
-0.085, -1.646e-6
-0.248, -1.582e-6
0.019, 1.638e-7
0.286, 1.437e-6
0.447, 1.521e-6
0.180, -1.148e-7
-0.087, -1.528e-6
-0.246, -1.479e-6
0.021, 1.643e-7
0.288, 1.339e-6
0.445, 1.418e-6
0.178, -1.202e-7
-0.089, -1.430e-6
-0.244, -1.385e-6
0.023, 1.657e-7
0.290, 1.257e-6
0.443, 1.322e-6
0.176, -1.254e-7
-0.091, -1.346e-6
-0.242, -1.297e-6
0.025, 1.676e-7
0.292, 1.188e-6
0.441, 1.235e-6
0.174, -1.301e-7
-0.093, -1.277e-6
-0.240, -1.220e-6
0.027, 1.697e-7
0.294, 1.130e-6
0.439, 1.159e-6
0.172, -1.351e-7
-0.095, -1.218e-6
-0.238, -1.147e-6
0.029, 1.712e-7
0.296, 1.081e-6
0.437, 1.086e-6
0.170, -1.402e-7
-0.097, -1.162e-6
-0.236, -1.078e-6
0.031, 1.731e-7
0.298, 1.036e-6
0.435, 1.020e-6
0.168, -1.446e-7
-0.099, -1.120e-6
-0.234, -1.015e-6
0.033, 1.751e-7
0.300, 9.985e-7
0.433, 9.581e-7
0.166, -1.492e-7
-0.101, -1.077e-6
-0.232, -9.547e-7
0.035, 1.767e-7
0.302, 9.631e-7
0.431, 8.986e-7
0.164, -1.527e-7
-0.103, -1.042e-6
-0.230, -8.990e-7
0.037, 1.786e-7
0.304, 9.325e-7
0.429, 8.456e-7
0.162, -1.563e-7
-0.105, -1.009e-6
-0.228, -8.474e-7
0.039, 1.809e-7
0.306, 9.067e-7
0.427, 7.993e-7
0.160, -1.597e-7
-0.107, -9.820e-7
-0.226, -8.004e-7
0.041, 1.827e-7
0.308, 8.863e-7
0.425, 7.580e-7
0.158, -1.628e-7
-0.109, -9.607e-7
-0.224, -7.564e-7
0.043, 1.842e-7
0.310, 8.659e-7
0.423, 7.164e-7
0.156, -1.660e-7
-0.111, -9.383e-7
-0.222, -7.151e-7
0.045, 1.860e-7
0.312, 8.478e-7
0.421, 6.779e-7
0.154, -1.693e-7
-0.113, -9.213e-7
-0.220, -6.771e-7
0.047, 1.877e-7
0.314, 8.326e-7
0.419, 6.421e-7
0.152, -1.724e-7
-0.115, -9.081e-7
-0.218, -6.413e-7
0.049, 1.891e-7
0.316, 8.182e-7
0.417, 6.099e-7
0.150, -1.749e-7
-0.117, -8.922e-7
-0.216, -6.069e-7
0.051, 1.909e-7
0.318, 8.069e-7
0.415, 5.803e-7
0.148, -1.776e-7
-0.119, -8.788e-7
-0.214, -5.747e-7
0.053, 1.921e-7
0.320, 7.958e-7
0.413, 5.513e-7
0.146, -1.809e-7
-0.121, -8.697e-7
-0.212, -5.444e-7
0.055, 1.927e-7
0.322, 7.846e-7
0.411, 5.217e-7
0.144, -1.830e-7
-0.123, -8.583e-7
-0.210, -5.163e-7
0.057, 1.946e-7
0.324, 7.751e-7
0.409, 4.968e-7
0.142, -1.850e-7
-0.125, -8.511e-7
-0.208, -4.897e-7
0.059, 1.957e-7
0.326, 7.685e-7
0.407, 4.756e-7
0.140, -1.877e-7
-0.127, -8.444e-7
-0.206, -4.645e-7
0.061, 1.966e-7
0.328, 7.624e-7
0.405, 4.535e-7
0.138, -1.902e-7
-0.129, -8.393e-7
-0.204, -4.401e-7
0.063, 1.978e-7
0.330, 7.558e-7
0.403, 4.320e-7
0.136, -1.921e-7
-0.131, -8.321e-7
-0.202, -4.176e-7
0.065, 1.990e-7
0.332, 7.497e-7
0.401, 4.117e-7
0.134, -1.948e-7
-0.133, -8.257e-7
-0.298, -1.953e-6